timestamps;TP9;AF7;AF8;TP10;Right AUX
1553642452;-41.992;13.184;43.457;-47.852;22.461
1553642452;-55.176;8.789;41.016;-47.363;-11.23
1553642452;-50.293;7.324;39.062;-67.871;-0.977
1553642452;-41.504;6.348;44.434;-52.246;29.297
1553642452;-44.434;7.324;49.805;-47.363;13.184
1553642452;-44.922;7.812;49.316;-65.918;-19.531
1553642452;-34.668;9.766;46.387;-58.594;-2.441
1553642452;-11.23;8.789;43.945;-37.109;30.762
1553642452;8.789;8.301;41.992;-24.902;33.691
1553642452;-9.277;8.301;39.062;-33.203;17.09
1553642452;-24.902;11.23;34.668;-23.438;19.531
1553642452;-13.672;15.625;36.621;-7.812;46.875
1553642452;-3.906;18.066;38.086;-20.996;67.383
1553642452;-5.371;20.508;38.086;-27.832;48.828
1553642452;-6.348;23.438;36.621;-20.02;33.203
1553642452;2.93;26.367;37.598;-5.859;57.129
1553642452;9.766;28.809;39.062;-2.441;73.73
1553642452;7.324;28.809;36.133;-16.602;56.641
1553642452;-2.441;26.367;33.203;-19.043;34.18
1553642452;-1.465;29.297;35.156;-15.625;40.527
1553642452;-1.465;30.273;33.691;-21.973;63.965
1553642452;-4.883;29.785;33.691;-20.508;66.406
1553642452;-4.883;29.297;40.039;1.953;39.551
1553642452;3.418;26.855;42.48;11.23;39.551
1553642452;16.602;29.785;43.457;0;71.289
1553642452;10.254;30.762;37.109;-8.789;80.566
1553642452;15.625;30.762;29.297;1.465;56.152
1553642452;27.832;33.203;32.715;9.277;43.945
1553642452;13.184;31.25;30.762;15.625;72.266
1553642452;-1.953;29.297;28.809;2.93;93.75
1553642452;0.977;33.203;28.809;-21.973;74.219
1553642452;10.742;36.621;29.297;-3.418;55.176
1553642452;8.789;36.133;32.715;3.418;69.824
1553642452;16.602;36.621;36.133;-1.953;93.75
1553642452;18.066;39.062;35.156;-6.836;87.402
1553642452;13.184;41.016;35.645;3.906;68.848
1553642452;13.672;41.016;40.527;22.461;70.801
1553642452;24.902;42.969;36.133;17.578;86.426
1553642452;35.645;45.898;35.156;24.414;84.473
1553642452;26.855;44.434;35.156;38.086;57.129
1553642452;21.484;40.527;28.809;20.508;48.34
1553642452;26.855;42.48;35.156;4.395;81.055
1553642452;34.668;44.434;39.551;2.441;91.309
1553642452;36.133;41.992;34.668;2.441;54.688
1553642452;31.738;43.457;31.738;13.184;42.969
1553642452;37.109;40.527;32.227;21.484;70.801
1553642452;30.273;38.086;29.297;-18.066;92.773
1553642452;7.324;42.48;28.809;-25.879;76.172
1553642452;8.301;42.969;32.227;0.488;54.688
1553642452;30.762;42.969;34.668;8.789;66.406
1553642452;31.738;46.875;35.156;2.441;84.961
1553642452;20.02;50.781;32.227;-5.859;82.031
1553642452;18.066;53.223;35.156;-5.859;58.105
1553642452;27.344;53.223;36.621;9.766;52.734
1553642452;36.133;54.688;36.621;5.859;73.242
1553642452;32.227;53.711;36.621;2.441;74.707
1553642452;6.836;57.129;31.738;19.043;47.852
1553642452;4.883;58.594;32.227;7.812;40.527
1553642452;16.113;53.223;34.18;-0.488;73.242
1553642452;19.531;52.246;33.203;0.488;89.844
1553642452;28.32;54.199;32.715;1.953;61.035
1553642452;22.461;53.711;33.691;15.625;48.828
1553642452;25.879;53.711;31.738;28.32;77.637
1553642452;26.855;57.129;31.738;4.395;96.68
1553642452;14.16;55.664;28.32;-3.418;82.031
1553642452;13.672;49.316;30.273;15.625;57.129
1553642452;18.066;48.34;34.668;18.066;62.988
1553642452;19.043;47.852;36.133;17.578;83.984
1553642452;27.832;47.852;37.598;9.766;77.637
1553642452;66.406;50.781;34.668;31.25;56.152
1553642452;67.383;49.805;36.133;32.715;49.805
1553642452;10.742;44.922;38.086;-11.719;72.754
1553642452;-7.812;41.504;37.598;-16.602;78.613
1553642452;7.812;45.41;33.203;8.301;60.547
1553642452;31.738;46.875;31.25;29.785;75.195
1553642453;22.461;43.457;34.18;10.254;92.285
1553642453;-4.395;45.898;31.25;-27.344;75.195
1553642453;4.395;48.34;28.809;-16.602;56.641
1553642453;12.695;47.363;30.762;-1.953;43.457
1553642453;17.09;47.852;25.391;-9.277;55.176
1553642453;20.02;47.363;21.973;-15.625;75.195
1553642453;16.602;49.805;25.879;-22.461;61.523
1553642453;16.113;48.34;31.25;1.465;26.367
1553642453;33.691;45.898;35.156;36.133;30.273
1553642453;31.25;45.898;36.133;11.23;63.965
1553642453;8.301;43.945;35.156;-12.207;62.012
1553642453;-3.906;43.457;29.297;-17.09;43.457
1553642453;1.953;42.969;28.809;-30.273;52.734
1553642453;19.531;47.852;38.086;-30.273;89.844
1553642453;18.555;48.828;41.016;-27.344;102.539
1553642453;21.973;45.41;37.598;-11.23;69.824
1553642453;18.555;44.434;34.668;3.418;53.223
1553642453;16.602;44.434;31.738;-3.906;81.543
1553642453;25.391;43.457;29.297;-11.719;101.074
1553642453;26.855;40.039;27.344;-9.766;79.59
1553642453;25.391;38.086;29.297;9.766;63.477
1553642453;25.391;39.551;31.25;24.414;83.008
1553642453;32.227;39.551;32.715;6.348;106.445
1553642453;41.992;40.039;32.715;-6.836;101.074
1553642453;33.691;38.574;31.738;2.441;72.754
1553642453;33.203;35.156;31.25;6.836;70.312
1553642453;36.133;32.227;30.762;0;98.145
1553642453;23.926;30.762;30.762;12.695;102.051
1553642453;22.461;27.832;32.227;14.648;75.195
1553642453;24.414;26.855;34.668;7.812;63.477
1553642453;21.484;32.227;35.156;13.184;88.379
1553642453;22.949;35.156;31.25;-0.488;111.328
1553642453;20.996;35.156;26.855;1.953;89.355
1553642453;14.648;35.156;28.32;2.441;71.777
1553642453;31.25;35.156;30.273;0.488;89.355
1553642453;50.293;35.156;29.297;4.883;100.586
1553642453;41.992;35.156;28.809;2.441;83.984
1553642453;24.902;38.086;29.297;16.602;64.941
1553642453;22.949;38.086;29.785;30.273;73.242
1553642453;30.273;35.156;29.297;9.766;96.68
1553642453;26.367;33.203;31.25;-16.113;91.797
1553642453;24.414;31.738;35.156;0.977;59.57
1553642453;30.762;33.691;35.156;22.461;62.5
1553642453;28.809;33.203;36.621;-0.488;97.656
1553642453;31.738;31.25;36.621;-5.859;97.656
1553642453;26.855;28.809;33.203;8.789;62.5
1553642453;18.555;29.785;34.668;7.324;57.129
1553642453;18.555;29.297;35.156;2.93;83.984
1553642453;17.578;29.297;38.086;0.977;90.332
1553642453;17.09;31.25;42.969;22.461;61.523
1553642453;21.973;31.25;40.527;28.809;43.457
1553642453;27.832;31.738;38.574;3.418;63.965
1553642453;32.715;35.645;40.039;-18.066;80.078
1553642453;31.25;38.086;41.016;-12.695;59.082
1553642453;32.227;36.133;42.48;-7.324;39.062
1553642453;29.785;34.668;46.387;2.93;50.781
1553642453;23.438;33.691;46.387;20.508;72.754
1553642453;20.996;32.227;43.457;1.953;69.824
1553642453;9.766;31.25;43.457;3.906;44.434
1553642453;22.461;35.156;45.898;21.973;41.992
1553642453;28.809;41.016;48.828;2.93;72.266
1553642453;21.973;40.527;46.387;-18.066;78.613
1553642453;26.855;37.109;41.504;-10.742;49.316
1553642453;23.926;39.062;42.48;10.254;40.039
1553642453;22.461;43.457;46.387;9.277;64.941
1553642453;23.926;41.992;44.922;-14.16;77.148
1553642453;13.184;42.48;45.41;-14.648;57.617
1553642453;0.977;42.969;45.898;8.301;40.039
1553642453;8.789;43.457;40.039;5.859;58.594
1553642453;15.625;45.41;38.086;-1.465;85.449
1553642453;12.207;45.41;37.109;-3.906;63.477
1553642453;13.184;40.039;31.25;-12.695;38.574
1553642453;16.113;35.645;38.574;-4.395;52.734
1553642453;32.227;34.668;42.48;9.277;79.102
1553642453;40.039;36.133;39.062;10.742;80.566
1553642453;30.273;36.133;39.062;2.441;59.57
1553642453;23.438;36.621;40.527;1.465;53.223
1553642453;27.832;38.086;39.062;4.395;81.543
1553642453;47.852;41.504;34.18;9.277;98.145
1553642453;47.363;41.504;33.691;5.371;66.895
1553642453;16.602;40.527;39.062;4.395;54.688
1553642453;13.672;41.504;41.016;11.23;92.285
1553642453;25.879;37.598;39.551;12.695;111.816
1553642453;24.414;34.18;41.016;16.602;82.52
1553642453;23.926;36.621;42.969;22.949;57.129
1553642453;22.949;35.156;40.527;13.672;73.73
1553642453;16.113;29.785;41.016;8.301;104.004
1553642453;15.137;26.367;42.48;13.184;88.379
1553642453;21.973;29.785;38.086;15.625;59.57
1553642453;21.484;32.715;38.574;10.254;66.895
1553642453;26.855;29.297;42.969;7.324;84.961
1553642453;39.062;29.785;39.062;1.465;85.938
1553642453;23.926;29.297;34.668;2.93;59.57
1553642453;26.855;29.297;33.691;9.766;58.105
1553642453;36.621;32.227;35.156;-2.441;88.867
1553642453;19.043;30.762;37.598;-3.418;101.562
1553642453;15.625;25.391;36.621;19.043;71.289
1553642453;14.16;23.926;33.691;20.02;52.734
1553642453;13.672;25.879;33.203;-0.488;74.707
1553642453;22.949;25.391;40.039;0;92.773
1553642453;29.785;28.32;39.551;9.766;80.566
1553642453;31.738;32.715;36.133;5.859;62.988
1553642453;30.273;34.668;38.574;0;74.707
1553642453;33.691;33.691;36.621;7.324;100.586
1553642453;21.973;31.738;36.621;13.184;96.191
1553642453;21.973;33.203;36.133;16.113;65.43
1553642453;28.32;33.691;35.156;8.789;69.824
1553642453;25.391;37.598;37.109;2.441;89.355
1553642453;32.227;45.898;36.133;8.301;91.309
1553642453;22.461;46.875;36.133;15.137;68.359
1553642453;18.555;40.527;37.109;26.367;57.129
1553642453;23.926;38.086;36.133;4.883;83.496
1553642453;18.555;38.574;34.18;3.418;89.355
1553642453;21.973;39.551;35.156;27.344;57.129
1553642453;19.531;36.133;39.551;23.438;36.133
1553642453;32.227;40.527;41.016;7.324;61.035
1553642453;36.133;41.504;41.016;0.488;81.543
1553642453;18.066;38.574;38.086;13.184;61.523
1553642453;25.879;35.156;36.133;9.277;44.922
1553642453;36.621;33.691;36.133;-3.906;62.988
1553642453;22.461;35.645;35.645;-4.395;85.449
1553642453;16.113;36.621;36.133;3.418;75.195
1553642453;14.648;37.598;34.18;10.254;50.781
1553642453;11.23;40.039;35.156;11.719;50.781
1553642453;18.066;38.086;38.574;-0.488;72.754
1553642453;19.531;33.203;39.551;-1.953;73.242
1553642453;17.578;33.203;38.574;21.484;51.27
1553642453;33.203;35.156;37.598;35.156;50.293
1553642453;32.715;36.621;34.18;24.902;63.965
1553642453;21.973;36.133;32.715;24.902;77.148
1553642453;28.32;34.668;37.109;21.484;62.012
1553642453;37.598;38.574;39.062;3.418;46.387
1553642453;33.691;41.992;40.039;6.836;66.895
1553642453;13.184;35.156;42.969;9.766;84.473
1553642453;5.371;31.738;42.969;5.859;72.266
1553642453;14.648;33.203;41.504;14.16;51.27
1553642453;26.855;34.668;43.457;13.184;61.035
1553642453;33.203;36.133;44.434;-3.418;83.008
1553642453;31.25;38.574;40.527;0.977;80.566
1553642453;20.996;35.645;39.551;11.23;62.5
1553642453;12.695;35.645;41.504;20.02;60.547
1553642453;17.578;40.527;42.48;20.02;88.379
1553642453;27.344;38.086;41.016;15.137;99.609
1553642453;24.414;36.621;38.574;24.414;69.336
1553642453;21.484;36.133;40.039;32.227;53.223
1553642453;30.762;35.156;42.969;35.645;77.637
1553642453;34.668;34.18;43.457;13.184;97.656
1553642453;31.738;31.738;40.039;-0.488;79.102
1553642453;26.855;29.785;39.551;11.23;46.387
1553642453;21.484;26.855;43.945;21.973;54.688
1553642453;19.043;25.391;42.969;3.906;88.867
1553642453;26.367;22.461;41.016;-10.742;93.262
1553642453;35.645;19.043;41.992;7.324;68.848
1553642453;31.738;19.531;41.504;10.742;67.383
1553642453;18.555;18.066;39.551;5.371;91.309
1553642453;16.602;16.602;40.527;12.695;90.332
1553642453;35.645;18.066;41.016;38.574;59.082
1553642453;51.27;19.531;38.086;54.199;46.875
1553642453;42.969;19.531;35.645;15.625;69.824
1553642453;21.973;18.066;37.598;-9.277;82.031
1553642453;-3.906;18.555;38.086;2.93;55.176
1553642453;-4.883;18.066;36.133;-0.488;41.504
1553642453;14.648;20.508;35.156;-7.324;66.895
1553642453;16.602;22.949;32.227;2.441;82.52
1553642453;14.648;23.438;31.738;8.789;61.523
1553642453;20.996;25.879;30.273;6.836;40.039
1553642453;18.066;25.879;31.738;8.789;51.27
1553642453;28.32;26.367;34.18;4.395;67.383
1553642453;20.508;27.832;32.227;8.301;62.012
1553642453;7.324;28.32;32.715;17.09;33.691
1553642453;10.254;29.785;38.574;33.691;25.391
1553642453;20.02;29.785;39.062;16.602;57.129
1553642453;19.531;29.297;38.086;-11.23;69.336
1553642453;14.16;33.691;35.645;-3.418;43.457
1553642453;21.973;34.18;28.809;0.488;41.016
1553642453;31.738;31.738;29.785;-3.418;73.242
1553642453;59.57;37.598;40.039;3.906;93.262
1553642453;51.758;33.203;42.969;12.695;72.754
1553642453;15.625;29.785;39.551;3.418;51.27
1553642453;1.953;34.668;37.109;-6.348;67.871
1553642453;4.883;33.203;37.109;-2.441;88.867
1553642453;7.812;31.738;36.133;8.789;79.102
1553642453;18.555;30.762;33.203;-0.488;60.059
1553642453;25.391;31.738;34.18;-8.789;61.035
1553642453;27.344;32.715;34.18;-2.93;83.984
1553642453;25.879;30.273;31.738;-4.883;88.379
1553642453;20.996;31.25;32.227;-3.418;60.059
1553642453;23.438;34.668;31.25;5.371;55.664
1553642453;29.785;34.668;34.668;10.742;84.961
1553642453;34.18;38.574;40.039;20.996;94.238
1553642453;23.438;39.062;39.551;24.902;67.383
1553642453;23.438;37.109;39.551;8.789;55.176
1553642453;24.902;40.039;33.691;7.812;83.496
1553642453;32.227;41.504;30.273;20.996;105.469
1553642453;35.156;40.527;36.621;26.855;81.055
1553642453;30.762;37.109;32.227;30.762;55.176
1553642453;23.926;32.715;31.738;29.297;72.266
1553642453;32.227;33.203;41.016;5.859;103.516
1553642453;42.969;39.062;44.434;-4.883;89.844
1553642453;41.504;39.551;44.922;0.977;64.453
1553642453;37.598;39.062;45.41;8.789;70.312
1553642453;32.715;36.621;44.922;1.953;89.355
1553642453;33.691;35.156;47.852;4.883;96.68
1553642453;27.344;35.645;46.875;12.695;72.754
1553642453;24.414;36.133;40.527;16.113;62.5
1553642453;25.391;37.598;41.992;17.578;86.426
1553642453;37.598;35.156;45.898;10.742;96.68
1553642453;43.457;32.715;44.922;9.766;68.848
1553642453;26.855;30.273;42.48;20.02;53.711
1553642453;20.996;26.367;44.922;33.691;73.242
1553642453;22.949;24.414;47.363;21.484;82.52
1553642453;17.09;26.367;48.34;6.836;67.383
1553642453;19.531;24.902;49.805;24.414;48.34
1553642453;27.344;25.879;47.363;28.809;57.617
1553642453;28.32;28.809;41.504;17.09;82.52
1553642453;20.996;27.832;35.645;13.184;83.008
1553642453;11.23;24.902;37.109;17.578;62.012
1553642453;13.184;24.902;37.109;19.531;57.617
1553642453;16.113;28.809;41.504;20.02;70.801
1553642453;15.625;30.762;52.246;17.09;69.824
1553642453;16.602;31.738;52.246;14.16;50.293
1553642453;18.555;30.273;46.875;-0.488;38.574
1553642453;23.438;29.785;43.945;-19.043;64.941
1553642453;25.391;29.297;44.434;-10.742;84.961
1553642453;23.926;29.785;44.922;-5.859;59.57
1553642453;20.996;31.738;38.574;-3.418;46.387
1553642453;20.508;32.227;33.691;-5.371;66.406
1553642453;23.926;34.668;36.133;-6.836;88.379
1553642453;22.949;36.133;34.668;-2.441;77.637
1553642453;19.531;36.621;36.621;3.906;53.711
1553642453;11.23;36.133;42.48;2.441;57.129
1553642453;15.137;36.133;36.133;-1.465;90.332
1553642453;44.922;38.574;27.832;18.555;124.023
1553642453;44.922;39.551;37.109;28.809;88.379
1553642453;6.836;32.715;47.363;2.93;44.434
1553642453;-7.324;26.855;28.32;-10.254;56.641
1553642453;-17.09;27.832;20.508;-12.695;66.895
1553642453;-34.668;20.508;24.902;-20.02;34.18
1553642453;-44.434;15.137;8.301;-44.922;10.254
1553642453;-39.551;9.766;27.344;-65.918;29.785
1553642453;-38.574;4.395;65.43;-81.055;31.738
1553642453;-67.871;12.695;65.918;-85.938;-0.977
1553642453;-92.773;3.418;34.668;-75.684;-18.555
1553642453;-89.355;-0.977;24.414;-74.707;2.441
1553642453;-81.055;15.137;79.102;-76.66;19.043
1553642453;-93.75;14.648;83.984;-82.031;2.441
1553642453;-112.793;-5.371;57.129;-82.52;-19.043
1553642453;-128.906;-16.113;66.895;-90.82;-26.367
1553642453;-125.977;-9.277;57.617;-95.215;-15.137
1553642453;-117.676;-6.348;53.223;-89.844;-8.301
1553642453;-116.699;-1.953;48.34;-79.59;-25.391
1553642453;-106.934;9.277;44.434;-73.242;-24.414
1553642453;-90.82;12.207;36.621;-67.383;11.23
1553642453;-79.102;8.301;39.551;-85.938;25.879
1553642453;-75.195;10.254;52.246;-104.004;8.301
1553642453;-66.406;16.113;49.805;-94.238;8.789
1553642454;-57.129;16.602;54.688;-89.844;39.551
1553642454;-50.781;16.602;58.594;-96.68;66.895
1553642454;-51.758;18.555;51.758;-84.961;55.664
1553642454;-40.527;19.531;44.922;-72.754;41.016
1553642454;-29.297;24.414;41.504;-77.637;58.594
1553642454;-37.598;20.02;40.039;-78.125;85.449
1553642454;-33.203;18.555;41.992;-79.102;82.52
1553642454;-32.715;20.508;44.434;-63.965;56.641
1553642454;-33.691;21.973;44.922;-52.734;66.895
1553642454;-19.531;25.879;40.527;-54.688;104.492
1553642454;-20.996;23.926;34.18;-46.875;102.051
1553642454;-20.508;20.996;39.062;-36.133;74.219
1553642454;-20.508;25.391;45.898;-34.18;52.734
1553642454;-23.438;25.879;42.969;-27.832;66.895
1553642454;-19.531;23.438;38.574;-39.551;88.379
1553642454;-16.602;24.902;42.969;-54.199;64.453
1553642454;-14.16;24.902;47.852;-42.48;54.688
1553642454;-16.602;26.855;35.156;-35.156;83.496
1553642454;-9.766;27.344;31.25;-41.504;94.238
1553642454;0.488;30.273;41.016;-30.273;73.242
1553642454;-12.695;34.668;38.574;-25.879;51.758
1553642454;-17.09;33.203;39.062;-28.32;67.383
1553642454;-9.277;31.25;42.969;-24.902;89.844
1553642454;-5.371;35.156;46.875;-27.832;79.102
1553642454;-1.465;36.621;41.016;-23.926;54.688
1553642454;-7.324;34.668;27.832;-12.695;58.594
1553642454;-13.184;33.691;33.691;-16.602;85.938
1553642454;-9.766;32.227;38.086;-19.531;84.961
1553642454;-4.395;34.18;42.48;-10.254;61.523
1553642454;-3.906;34.668;47.363;-7.812;61.523
1553642454;-4.883;36.621;43.457;-15.137;87.891
1553642454;-0.488;38.086;41.992;-14.648;94.727
1553642454;0;39.062;36.621;-5.859;69.336
1553642454;12.695;41.992;33.203;1.465;61.523
1553642454;14.648;41.992;34.18;-8.789;83.496
1553642454;12.695;39.062;36.133;-13.184;102.051
1553642454;22.949;36.621;38.086;14.16;80.078
1553642454;15.137;38.086;30.762;21.973;54.688
1553642454;7.324;37.109;25.391;-1.953;64.941
1553642454;14.648;38.086;29.785;-5.371;88.379
1553642454;21.973;41.504;27.832;0;88.379
1553642454;17.09;44.434;29.297;-0.977;63.965
1553642454;19.531;46.387;43.457;0;64.941
1553642454;28.809;48.34;45.898;-10.742;86.426
1553642454;25.391;50.293;41.016;-19.531;89.355
1553642454;21.973;47.852;33.691;-5.859;67.871
1553642454;20.996;41.992;28.809;1.465;57.617
1553642454;18.066;42.48;31.738;-3.418;83.496
1553642454;17.578;44.434;37.598;-1.953;104.004
1553642454;24.902;45.898;46.875;14.648;77.637
1553642454;20.996;47.852;41.016;20.02;49.805
1553642454;23.438;47.363;30.273;19.531;70.801
1553642454;33.203;43.945;30.762;22.949;97.168
1553642454;24.414;42.969;39.551;22.949;85.938
1553642454;18.066;43.457;48.34;24.414;58.105
1553642454;20.02;39.551;46.875;21.484;63.477
1553642454;31.738;41.016;44.434;19.531;93.262
1553642454;34.668;45.41;41.504;23.438;97.656
1553642454;34.668;45.898;38.574;24.902;64.453
1553642454;30.273;41.992;40.039;28.32;56.641
1553642454;28.809;37.109;41.504;26.367;83.496
1553642454;26.855;33.691;41.016;22.461;83.496
1553642454;20.02;34.668;42.48;34.668;51.758
1553642454;16.602;34.668;43.457;36.621;39.551
1553642454;18.555;34.668;36.133;25.879;62.5
1553642454;20.02;36.133;26.367;21.484;83.008
1553642454;21.973;30.273;29.297;28.32;66.895
1553642454;29.297;28.809;35.645;33.691;46.875
1553642454;29.297;35.156;42.48;24.902;65.43
1553642454;35.645;40.039;48.828;26.367;84.961
1553642454;39.062;40.039;46.387;19.043;74.707
1553642454;28.32;37.109;41.992;19.043;51.27
1553642454;28.809;33.691;38.086;28.809;54.199
1553642454;35.645;28.32;33.203;21.973;75.684
1553642454;36.621;29.785;36.133;24.414;79.59
1553642454;34.668;36.621;43.945;24.902;56.641
1553642454;43.457;38.574;43.945;13.184;49.316
1553642454;48.828;38.574;43.457;5.859;75.195
1553642454;44.434;38.086;41.992;0;85.938
1553642454;34.668;36.621;37.598;12.695;61.035
1553642454;32.227;38.574;31.738;18.555;49.316
1553642454;24.902;40.039;26.855;17.09;69.336
1553642454;19.043;35.156;35.645;18.555;82.031
1553642454;26.855;33.203;44.922;19.043;65.918
1553642454;36.133;34.18;49.316;24.414;43.457
1553642454;38.574;34.668;50.781;15.625;49.316
1553642454;33.691;36.133;48.34;23.926;84.961
1553642454;31.738;33.203;46.875;32.227;94.238
1553642454;32.227;33.203;44.434;26.855;71.777
1553642454;36.621;33.691;42.48;15.625;70.312
1553642454;43.945;34.668;39.551;8.789;94.238
1553642454;41.504;34.668;39.551;37.109;95.703
1553642454;33.691;34.18;42.48;53.223;67.383
1553642454;30.762;38.086;40.039;32.715;63.965
1553642454;44.922;39.551;41.504;21.484;97.168
1553642454;57.617;40.039;48.34;25.391;107.91
1553642454;42.969;44.922;46.387;28.809;78.613
1553642454;32.227;47.852;41.016;36.133;68.848
1553642454;38.574;49.316;43.457;38.574;88.867
1553642454;41.992;49.805;49.316;40.527;103.516
1553642454;37.598;49.316;49.316;37.598;91.797
1553642454;47.852;48.34;46.875;41.016;69.336
1553642454;38.086;42.48;45.41;41.504;76.66
1553642454;32.227;39.551;38.086;39.062;100.098
1553642454;34.18;44.434;33.691;39.551;97.656
1553642454;24.414;43.457;36.621;40.039;70.312
1553642454;35.645;45.898;40.039;47.852;74.707
1553642454;47.363;50.293;42.48;50.781;98.145
1553642454;46.387;45.898;39.551;43.945;108.398
1553642454;35.645;42.969;38.086;41.016;91.309
1553642454;35.645;43.457;38.086;42.969;62.5
1553642454;45.41;41.504;38.086;47.852;79.59
1553642454;44.922;42.969;37.109;46.875;95.703
1553642454;37.598;43.945;34.668;37.109;66.406
1553642454;29.785;39.062;36.621;27.344;41.016
1553642454;32.227;40.039;40.527;32.227;54.199
1553642454;39.551;38.086;43.457;45.898;87.891
1553642454;40.039;35.156;45.41;36.133;92.773
1553642454;21.484;41.504;45.41;16.602;47.852
1553642454;2.93;46.875;44.922;8.301;21.484
1553642454;17.578;47.852;41.504;11.23;50.781
1553642454;21.484;50.293;36.621;6.836;59.082
1553642454;2.93;50.293;34.668;-7.812;25.879
1553642454;3.418;54.199;31.25;-18.555;13.672
1553642454;16.602;65.918;31.25;-14.16;41.016
1553642454;20.02;73.242;30.273;-10.254;58.594
1553642454;18.555;73.242;26.855;-11.719;31.738
1553642454;23.926;75.195;27.832;9.277;16.602
1553642454;28.809;76.172;30.762;12.695;38.574
1553642454;25.879;75.684;27.344;-8.789;58.105
1553642454;34.18;74.219;23.926;4.883;47.363
1553642454;50.781;76.66;23.438;17.578;35.645
1553642454;64.453;79.59;20.508;13.184;51.27
1553642454;72.266;78.125;20.996;34.668;84.473
1553642454;89.355;74.219;23.438;49.316;93.262
1553642454;102.051;71.777;20.02;58.105;73.242
1553642454;111.328;71.777;15.137;72.266;92.285
1553642454;124.512;70.312;16.113;70.801;135.254
1553642454;127.93;68.848;13.672;89.844;149.414
1553642454;139.648;66.895;13.184;112.305;129.395
1553642454;156.25;64.941;13.184;103.516;134.277
1553642454;161.621;61.035;12.695;121.094;175.293
1553642454;165.527;55.176;10.742;130.371;187.5
1553642454;166.504;56.152;2.441;116.699;165.039
1553642454;162.109;55.176;3.418;118.652;150.391
1553642454;162.109;51.27;6.836;129.395;175.293
1553642454;161.133;49.805;10.254;130.859;198.242
1553642454;156.738;48.828;15.137;125.488;182.129
1553642454;153.32;47.363;18.555;129.395;150.879
1553642454;152.344;43.457;23.438;126.953;153.32
1553642454;151.367;44.922;28.32;125;182.129
1553642454;142.09;43.945;28.32;120.117;174.805
1553642454;133.789;39.551;29.297;119.629;144.043
1553642454;145.02;40.527;35.156;128.906;146.484
1553642454;145.02;40.039;38.086;124.023;177.246
1553642454;144.043;38.086;35.156;110.352;184.082
1553642454;133.301;37.109;32.227;107.422;153.32
1553642454;125.977;39.551;34.18;108.887;134.277
1553642454;135.254;39.551;40.527;106.934;156.738
1553642454;121.094;40.527;39.551;105.957;178.711
1553642454;101.562;41.504;38.086;103.027;154.785
1553642454;104.98;40.527;35.645;90.82;130.371
1553642454;99.609;41.016;35.645;83.496;147.461
1553642454;89.844;41.992;39.062;76.66;162.109
1553642454;81.055;44.434;39.551;63.965;139.648
1553642454;85.449;43.945;37.598;66.895;108.887
1553642454;96.191;46.387;37.109;78.125;108.887
1553642454;89.355;47.363;41.016;74.219;131.836
1553642454;88.379;45.41;43.457;72.266;131.348
1553642454;82.031;43.945;42.969;71.289;100.098
1553642454;71.777;40.039;43.457;64.941;93.75
1553642454;78.613;37.109;44.434;67.871;122.559
1553642454;80.078;34.668;42.969;73.73;125.977
1553642454;70.312;34.18;43.945;88.379;89.844
1553642454;59.082;36.621;43.457;76.66;77.148
1553642454;70.801;38.574;42.969;44.922;107.422
1553642454;79.59;36.133;44.434;41.016;121.582
1553642454;78.125;35.156;42.48;46.875;94.727
1553642454;66.406;38.086;40.039;50.781;67.871
1553642454;54.688;36.621;41.504;39.062;79.59
1553642454;57.617;37.109;41.504;30.762;98.633
1553642454;49.805;37.109;40.527;35.156;85.938
1553642454;39.062;34.18;36.133;40.527;66.895
1553642454;42.969;31.25;37.598;46.387;71.289
1553642454;46.875;29.785;44.922;47.363;94.727
1553642454;51.27;30.273;40.039;42.48;96.191
1553642454;55.664;29.297;38.086;43.457;67.871
1553642454;55.664;27.832;39.062;34.668;61.035
1553642454;44.434;27.832;34.18;26.855;81.543
1553642454;38.086;30.273;34.668;35.645;93.75
1553642454;41.016;29.297;37.598;38.574;74.707
1553642454;37.109;29.785;40.039;39.062;58.105
1553642454;33.691;30.762;40.039;22.949;80.078
1553642454;37.109;25.879;37.598;19.043;101.562
1553642454;30.273;23.438;34.668;25.879;88.379
1553642454;28.809;26.367;35.645;24.414;71.777
1553642454;26.367;26.855;36.621;20.996;72.754
1553642454;27.832;25.879;37.598;18.555;92.285
1553642454;35.645;29.297;37.598;14.648;101.562
1553642454;37.598;29.297;38.574;23.438;75.195
1553642454;41.016;27.832;40.039;31.25;71.289
1553642454;35.156;30.762;40.527;21.973;98.633
1553642454;29.297;27.832;41.504;25.391;99.609
1553642454;23.926;22.949;44.922;37.598;66.406
1553642454;19.531;26.367;41.504;36.621;47.363
1553642454;21.973;25.879;39.062;22.949;67.871
1553642454;23.438;26.367;39.551;7.812;75.195
1553642454;18.555;25.391;36.621;5.371;41.992
1553642454;3.906;22.461;36.133;-0.977;28.32
1553642454;-0.488;20.02;38.086;-1.953;55.664
1553642454;-3.906;16.113;41.016;-8.301;75.684
1553642454;0;17.578;40.527;-2.441;57.129
1553642454;4.395;18.555;38.086;-2.441;35.156
1553642454;4.395;17.578;38.086;-14.648;50.293
1553642454;12.207;18.066;39.551;-0.488;72.754
1553642454;16.602;18.066;39.062;4.883;51.758
1553642454;14.648;20.02;35.156;11.719;20.02
1553642454;7.324;23.926;33.203;30.273;30.273
1553642454;1.465;26.855;38.574;20.02;62.5
1553642454;-1.465;31.25;39.062;0;67.871
1553642454;-4.883;32.715;39.062;0;44.434
1553642454;-1.953;28.809;41.016;-1.465;32.715
1553642454;-1.465;27.832;40.527;-4.395;53.711
1553642454;-2.441;26.367;41.504;6.836;65.43
1553642454;-3.906;23.926;42.48;14.16;39.551
1553642454;-7.812;22.949;41.504;3.906;19.531
1553642454;3.418;27.344;43.457;17.578;33.691
1553642454;8.789;30.273;41.992;18.555;53.711
1553642454;8.789;30.762;37.598;-2.441;45.41
1553642454;14.648;34.18;38.086;4.883;23.926
1553642454;12.207;35.156;40.039;21.973;18.555
1553642454;9.766;32.715;38.574;11.23;42.48
1553642454;11.23;33.203;37.598;-7.812;57.617
1553642454;3.418;32.227;39.062;-2.93;35.645
1553642454;2.441;33.203;39.551;6.836;27.344
1553642454;14.16;35.156;36.621;11.719;51.758
1553642454;17.578;32.715;37.109;-2.441;60.059
1553642454;2.441;34.18;37.109;-10.742;27.344
1553642454;-0.488;35.645;38.574;-2.441;16.602
1553642454;13.184;32.227;38.086;-1.953;53.711
1553642454;21.484;31.25;36.621;-7.324;75.195
1553642454;20.02;33.691;38.574;-4.395;51.27
1553642454;24.414;35.645;37.598;16.113;30.273
1553642454;18.555;32.227;37.598;29.785;48.34
1553642454;0.977;28.32;41.504;28.32;82.52
1553642454;-3.906;29.785;41.016;0.488;77.148
1553642454;-10.742;28.809;39.551;-16.113;43.457
1553642454;-7.324;27.344;40.527;-15.137;47.363
1553642454;13.184;32.227;41.504;-18.555;84.473
1553642454;13.184;32.715;45.41;11.719;92.773
1553642454;7.812;26.367;44.922;17.578;60.547
1553642454;7.324;26.367;42.48;2.93;50.781
1553642454;10.742;26.367;40.039;1.465;77.637
1553642454;27.344;22.949;40.039;7.812;85.449
1553642454;29.785;24.902;41.992;20.508;60.059
1553642454;27.344;26.367;43.457;12.207;49.316
1553642455;27.832;27.344;41.992;17.09;72.266
1553642455;24.902;28.809;43.945;23.438;92.773
1553642455;15.137;26.367;46.875;12.207;76.172
1553642455;12.695;29.785;42.48;27.832;50.293
1553642455;28.32;33.203;41.016;31.25;61.035
1553642455;37.598;31.738;42.969;5.371;88.379
1553642455;26.855;29.297;46.875;-5.371;76.172
1553642455;29.297;30.273;43.457;-0.977;44.922
1553642455;31.25;32.715;40.527;17.09;45.898
1553642455;19.531;32.227;41.504;18.555;63.965
1553642455;18.066;29.297;43.945;10.254;68.359
1553642455;20.996;28.32;48.34;10.254;54.199
1553642455;27.344;26.367;41.992;8.301;57.617
1553642455;38.086;27.344;37.598;20.996;91.309
1553642455;29.297;31.738;46.875;28.32;102.051
1553642455;12.695;29.297;52.734;15.625;62.012
1553642455;24.902;26.855;51.27;24.902;44.922
1553642455;30.273;28.809;52.734;26.367;71.289
1553642455;23.926;30.762;47.363;13.184;92.285
1553642455;32.715;30.762;41.504;14.648;84.961
1553642455;31.25;26.855;42.48;10.742;55.176
1553642455;32.715;23.926;41.504;26.855;54.199
1553642455;42.48;27.344;42.48;46.875;81.055
1553642455;51.758;31.738;45.898;42.48;83.496
1553642455;51.27;33.691;44.434;26.367;62.988
1553642455;34.668;31.738;41.504;7.812;58.105
1553642455;37.598;30.762;40.527;9.277;87.402
1553642455;40.039;31.25;39.551;29.785;100.586
1553642455;32.715;31.738;38.574;41.992;71.777
1553642455;35.156;29.785;36.621;41.504;57.617
1553642455;44.434;29.785;36.133;43.945;79.59
1553642455;37.109;30.762;36.621;24.414;95.215
1553642455;36.621;27.344;34.668;5.859;73.73
1553642455;40.527;26.855;33.691;9.766;57.129
1553642455;40.527;30.762;37.109;21.973;78.125
1553642455;43.457;33.203;40.527;41.016;98.633
1553642455;45.898;31.738;38.086;36.133;89.844
1553642455;45.898;32.715;36.621;23.438;69.824
1553642455;44.922;31.738;38.086;24.414;71.289
1553642455;47.363;27.832;38.086;27.832;93.262
1553642455;51.27;29.785;39.551;29.297;95.703
1553642455;36.621;31.738;40.039;38.086;66.895
1553642455;29.297;29.785;38.574;43.457;63.477
1553642455;77.148;27.832;41.016;33.691;89.844
1553642455;117.676;33.203;41.016;42.48;96.68
1553642455;88.867;36.621;38.574;61.523;70.312
1553642455;42.969;30.762;40.527;59.082;56.152
1553642455;20.508;30.273;37.598;17.578;83.008
1553642455;18.066;36.621;36.133;0.488;103.516
1553642455;37.109;32.227;37.598;-8.301;85.938
1553642455;39.062;29.785;38.574;-10.254;63.477
1553642455;18.066;34.18;38.574;17.578;74.707
1553642455;15.625;32.227;39.062;22.461;100.098
1553642455;28.32;30.762;41.992;15.625;96.191
1553642455;33.203;29.785;41.504;20.996;65.918
1553642455;37.109;28.32;41.016;25.391;55.664
1553642455;32.715;28.809;42.969;19.043;76.172
1553642455;22.461;28.32;44.434;5.859;83.008
1553642455;36.621;29.297;42.48;7.812;60.059
1553642455;47.363;32.715;46.387;26.367;59.082
1553642455;47.363;33.691;48.828;24.902;85.938
1553642455;41.504;29.785;45.898;18.066;92.773
1553642455;30.762;26.855;44.922;35.645;63.965
1553642455;35.645;28.809;43.457;40.527;44.922
1553642455;41.016;33.691;43.457;19.531;66.895
1553642455;31.738;30.273;43.945;11.719;86.426
1553642455;34.18;27.832;46.387;16.113;67.871
1553642455;31.738;29.297;45.41;26.367;42.969
1553642455;27.832;32.715;45.41;26.855;55.664
1553642455;30.762;31.25;46.875;3.418;84.961
1553642455;27.832;28.809;44.922;-4.883;78.125
1553642455;17.578;30.273;42.48;4.395;45.898
1553642455;18.555;27.344;39.551;19.531;43.457
1553642455;26.855;24.414;38.574;10.254;67.871
1553642455;32.715;24.414;35.156;-1.953;73.242
1553642455;36.133;25.879;34.18;21.973;47.363
1553642455;48.34;27.832;36.621;25.391;39.062
1553642455;60.059;29.297;38.574;7.812;70.312
1553642455;35.645;32.227;39.551;-6.348;83.984
1553642455;19.043;32.715;38.574;-11.719;65.918
1553642455;13.672;32.227;39.062;-0.977;47.852
1553642455;18.066;33.203;40.039;5.859;57.129
1553642455;24.902;32.227;41.016;4.883;67.383
1553642455;6.836;33.691;40.527;2.93;51.758
1553642455;3.906;39.062;43.457;8.789;34.668
1553642455;26.855;38.574;44.922;1.953;45.41
1553642455;31.738;36.133;42.969;-0.977;72.266
1553642455;20.02;35.645;41.504;4.883;71.777
1553642455;11.719;35.156;39.062;3.906;53.223
1553642455;0.488;38.086;37.598;8.301;52.246
1553642455;8.789;35.645;35.156;-5.371;76.66
1553642455;21.973;33.203;39.551;-4.395;83.008
1553642455;38.574;38.574;43.945;10.742;59.082
1553642455;56.641;39.062;42.48;35.156;41.992
1553642455;39.062;41.016;38.574;27.832;57.617
1553642455;20.508;42.969;36.133;-19.531;78.613
1553642455;13.672;38.574;36.621;-29.785;56.641
1553642455;4.883;36.133;35.645;-12.207;36.133
1553642455;2.441;39.551;39.551;-2.93;53.711
1553642455;15.137;37.598;41.504;-10.254;69.824
1553642455;14.648;34.668;40.527;-18.555;58.105
1553642455;1.465;38.574;40.039;1.953;34.18
1553642455;5.859;43.457;38.086;5.371;38.086
1553642455;11.719;48.828;39.062;1.953;63.477
1553642455;11.719;45.41;39.551;13.184;63.477
1553642455;11.719;41.016;39.062;-2.441;36.133
1553642455;11.23;44.434;41.016;-7.324;30.273
1553642455;23.926;47.363;40.039;-6.348;59.57
1553642455;27.832;44.922;41.504;-1.465;70.801
1553642455;25.391;44.434;45.898;3.418;48.828
1553642455;27.344;46.387;43.457;1.465;43.945
1553642455;27.344;48.34;41.504;4.883;65.918
1553642455;30.762;47.363;41.016;-6.836;84.961
1553642455;30.273;51.758;41.016;-7.324;71.289
1553642455;13.184;55.664;44.922;3.418;45.41
1553642455;19.043;53.223;47.363;1.953;59.082
1553642455;36.621;53.223;49.805;-4.395;85.449
1553642455;25.391;55.176;49.805;6.348;81.055
1553642455;13.184;54.199;45.898;20.996;57.617
1553642455;25.879;52.734;42.969;23.926;56.152
1553642455;49.805;51.27;44.922;14.648;81.543
1553642455;34.668;47.852;43.945;12.695;83.008
1553642455;10.742;47.852;47.852;2.93;57.617
1553642455;20.02;49.805;50.293;20.508;51.758
1553642455;33.203;46.387;44.434;25.391;71.289
1553642455;41.504;44.434;40.527;-7.324;80.566
1553642455;34.18;41.504;43.945;-9.766;61.035
1553642455;37.109;38.574;45.898;13.184;60.059
1553642455;62.988;43.457;42.969;39.551;89.844
1553642455;46.875;53.711;41.016;21.973;90.82
1553642455;14.16;57.617;39.062;-5.859;55.176
1553642455;2.441;54.688;37.109;-10.254;30.273
1553642455;-3.906;56.152;34.18;-31.738;31.25
1553642455;-14.16;61.035;29.297;-57.617;45.41
1553642455;-39.062;62.988;26.855;-70.801;29.297
1553642455;-62.5;61.523;24.414;-75.195;-16.113
1553642455;-62.012;66.895;18.066;-75.684;-24.902
1553642455;-59.082;80.566;16.113;-84.473;3.906
1553642455;-62.988;88.379;18.555;-107.422;-3.906
1553642455;-70.312;90.332;13.184;-136.23;-52.246
1553642455;-74.219;95.215;4.883;-132.324;-65.918
1553642455;-72.754;100.586;2.441;-106.934;-42.48
1553642455;-82.031;104.004;1.465;-124.512;-27.832
1553642455;-86.914;104.98;-2.441;-144.531;-48.34
1553642455;-78.125;110.84;-3.906;-124.023;-62.012
1553642455;-52.734;116.699;-3.906;-131.836;-35.156
1553642455;-37.598;117.188;-4.883;-132.812;-10.254
1553642455;-45.898;113.77;-0.488;-114.258;-20.996
1553642455;-50.781;108.398;1.953;-113.77;-35.156
1553642455;-27.344;105.957;-0.977;-100.586;-10.742
1553642455;-35.156;99.609;7.812;-92.773;19.043
1553642455;-22.461;91.309;16.602;-83.984;29.297
1553642455;2.93;88.379;17.578;-61.035;18.555
1553642455;-4.395;81.543;18.066;-42.48;19.531
1553642455;-10.742;73.242;20.508;-39.062;50.293
1553642455;6.836;65.918;21.484;-43.457;66.895
1553642455;19.043;60.059;20.996;-41.504;51.758
1553642455;-0.488;62.012;24.902;-41.016;41.016
1553642455;-8.789;59.57;29.297;-28.809;63.477
1553642455;9.766;56.641;31.738;-35.156;86.914
1553642455;17.578;55.176;29.785;-44.922;68.359
1553642455;14.648;48.34;28.809;-32.715;50.293
1553642455;20.02;44.922;31.738;-31.738;62.988
1553642455;31.738;45.41;33.203;-29.297;82.031
1553642455;44.434;43.457;34.668;-21.484;74.219
1553642455;33.691;41.992;38.086;-12.695;54.688
1553642455;14.16;33.203;38.086;-1.465;50.781
1553642455;34.18;23.926;34.668;-5.371;66.895
1553642455;41.016;22.949;32.715;-13.672;75.195
1553642455;35.156;23.438;38.086;2.441;53.711
1553642455;45.41;24.902;42.969;2.93;53.223
1553642455;40.527;24.902;42.969;-15.137;80.078
1553642455;31.738;24.902;45.898;-5.859;91.309
1553642455;20.996;22.461;43.945;14.648;72.266
1553642455;21.484;20.996;41.992;23.926;60.547
1553642455;29.297;23.926;45.898;27.832;77.637
1553642455;47.363;24.902;47.852;0.977;91.309
1553642455;45.41;21.973;43.457;-2.441;72.754
1553642455;20.508;19.531;41.504;14.648;46.387
1553642455;19.043;16.602;46.387;2.93;53.711
1553642455;35.156;15.625;48.34;-15.137;73.242
1553642455;31.25;16.602;47.852;-19.531;70.312
1553642455;24.414;17.09;52.246;1.953;55.664
1553642455;14.16;15.625;50.781;15.625;50.781
1553642455;12.695;13.672;45.898;9.766;63.965
1553642455;23.438;10.742;47.363;5.859;69.336
1553642455;26.367;10.742;46.387;16.113;56.641
1553642455;23.926;12.695;45.41;29.785;54.688
1553642455;18.555;15.625;49.316;45.898;73.242
1553642455;17.578;15.137;48.34;36.621;76.66
1553642455;22.461;13.184;50.781;11.23;55.664
1553642455;24.414;17.09;56.641;7.812;51.758
1553642455;13.672;16.113;54.688;15.137;67.383
1553642455;28.32;14.16;55.664;19.531;84.473
1553642455;40.527;17.09;53.223;8.789;77.148
1553642455;20.508;16.113;51.27;20.02;62.988
1553642455;27.344;14.648;52.734;26.367;69.336
1553642455;47.363;13.672;54.199;14.648;86.426
1553642455;45.898;19.043;56.641;17.09;91.309
1553642455;28.809;21.484;56.152;43.945;75.684
1553642455;6.836;17.09;52.734;55.664;71.289
1553642455;-4.883;18.066;47.852;23.926;79.59
1553642455;5.371;20.02;46.387;15.625;87.891
1553642455;14.16;17.09;51.758;38.574;78.125
1553642455;7.812;19.043;51.27;31.738;67.383
1553642455;9.766;21.484;49.316;-1.465;80.078
1553642455;28.32;21.973;48.34;-5.371;90.82
1553642455;26.855;23.438;45.898;16.602;79.102
1553642455;19.531;22.949;46.387;48.34;62.012
1553642455;22.949;27.344;51.758;39.551;73.73
1553642455;20.508;31.25;48.828;5.371;91.797
1553642455;19.531;29.785;43.457;6.836;83.008
1553642455;15.625;31.25;46.387;25.391;60.059
1553642455;10.254;34.668;45.41;19.043;57.129
1553642455;7.324;35.645;41.016;-6.348;77.637
1553642455;11.23;34.18;39.551;-8.301;80.566
1553642455;19.043;32.227;40.527;11.23;63.477
1553642455;22.949;33.691;41.016;25.879;58.105
1553642455;18.066;32.715;39.551;15.625;75.684
1553642455;22.461;30.762;39.551;23.438;89.355
1553642455;27.344;29.785;38.086;48.828;74.707
1553642455;29.785;30.762;36.621;41.016;64.941
1553642455;21.973;31.25;41.992;12.207;80.566
1553642455;2.93;29.785;42.48;0.977;90.82
1553642455;-2.93;29.297;39.062;0;64.941
1553642455;7.812;29.297;37.598;2.441;53.223
1553642455;21.973;27.344;35.156;-8.789;69.336
1553642455;21.484;23.438;37.109;-19.043;83.008
1553642455;11.23;21.484;38.086;-9.766;78.613
1553642455;7.324;24.414;34.668;4.883;60.547
1553642455;0;28.809;31.738;2.93;60.547
1553642455;13.184;33.691;32.227;-2.441;83.008
1553642455;26.855;34.668;34.668;-1.465;90.82
1553642455;20.996;33.691;35.156;8.789;73.242
1553642455;20.02;35.645;34.18;44.434;62.012
1553642455;4.883;31.25;36.133;39.062;70.801
1553642455;-3.906;30.762;33.691;-10.254;78.613
1553642455;8.301;38.574;31.738;-18.555;68.359
1553642455;3.906;37.109;32.715;-1.953;61.035
1553642455;1.953;32.715;32.227;-10.254;75.195
1553642455;8.301;36.621;34.18;-16.602;84.473
1553642455;8.789;37.109;37.109;-9.766;72.754
1553642455;-1.953;31.738;39.062;-5.859;64.453
1553642455;-9.277;30.762;38.086;-2.441;66.895
1553642455;-5.859;33.691;37.598;-5.371;80.078
1553642455;6.836;33.203;38.574;-0.977;89.844
1553642455;12.207;29.297;38.574;9.766;71.777
1553642455;13.184;31.25;38.086;19.043;55.176
1553642455;16.113;33.203;40.527;20.996;70.312
1553642455;18.066;34.668;41.992;3.906;83.496
1553642455;7.812;31.25;41.504;-4.395;68.359
1553642455;-5.859;25.391;40.527;9.766;57.129
1553642455;-5.859;26.367;39.551;7.812;72.754
1553642455;-2.441;24.902;38.574;-11.719;88.379
1553642455;5.859;23.438;33.691;-6.348;80.566
1553642455;19.531;23.438;38.086;-12.207;76.172
1553642456;21.973;25.391;36.133;-22.461;90.332
1553642456;12.207;25.391;30.273;-13.184;102.539
1553642456;5.371;23.438;36.133;0;90.82
1553642456;2.93;28.809;35.645;15.625;74.219
1553642456;22.949;28.32;37.109;13.184;83.496
1553642456;32.227;31.25;40.039;-17.578;96.68
1553642456;20.508;32.715;37.598;-22.949;98.633
1553642456;6.836;27.344;38.086;-9.277;89.844
1553642456;11.719;25.391;37.598;-13.672;82.031
1553642456;23.926;29.297;35.156;-11.719;81.055
1553642456;24.414;32.227;38.574;-5.859;76.172
1553642456;13.184;24.414;37.109;-2.93;60.059
1553642456;4.883;25.391;38.574;5.371;45.898
1553642456;6.348;30.762;40.527;1.953;47.852
1553642456;9.766;30.273;40.039;-3.906;61.523
1553642456;13.184;30.762;41.504;0.977;51.758
1553642456;15.625;31.25;40.527;27.344;52.734
1553642456;5.859;34.18;38.086;18.555;90.332
1553642456;-12.207;34.668;38.574;-18.066;93.262
1553642456;-18.555;35.645;38.574;-30.273;123.535
1553642456;-0.977;36.133;30.273;-20.996;141.113
1553642456;28.32;41.016;27.344;11.23;65.43
1553642456;31.738;41.504;39.062;11.23;42.48
1553642456;12.207;32.227;45.41;-25.391;32.227
1553642456;-0.488;21.973;43.945;-21.484;19.531
1553642456;-7.812;14.648;43.945;-4.395;36.133
1553642456;-16.113;7.812;45.898;-0.977;62.012
1553642456;-14.16;4.883;50.781;-0.977;74.219
1553642456;-15.137;4.883;51.758;6.348;64.941
1553642456;-3.906;-6.836;46.387;8.789;67.871
1553642456;6.836;-4.883;47.852;-9.766;89.355
1553642456;9.277;0.977;45.41;-16.602;120.605
1553642456;2.93;-1.953;40.527;5.371;125
1553642456;-3.418;4.883;43.457;12.207;106.445
1553642456;14.648;9.766;44.434;21.973;108.887
1553642456;33.203;10.742;47.852;39.551;133.789
1553642456;21.973;9.766;46.875;17.09;143.066
1553642456;11.719;7.324;44.434;9.277;156.738
1553642456;31.25;12.207;45.898;20.02;145.02
1553642456;46.387;12.207;46.387;23.438;89.844
1553642456;39.062;7.324;42.48;12.695;52.246
1553642456;42.969;9.277;39.062;8.789;12.207
1553642456;34.18;13.672;36.621;12.695;5.371
1553642456;12.207;16.602;38.086;0.977;36.621
1553642456;15.137;15.625;39.062;-7.324;44.434
1553642456;9.766;12.207;37.109;10.254;28.809
1553642456;-1.953;15.137;33.203;17.09;20.02
1553642456;-0.977;19.531;34.18;20.508;34.18
1553642456;-1.465;16.602;32.715;0;41.992
1553642456;-3.418;14.648;31.738;0.488;29.785
1553642456;-0.488;17.09;35.156;35.156;17.578
1553642456;3.418;19.043;39.062;20.508;27.832
1553642456;14.648;17.09;41.016;-15.625;45.898
1553642456;12.695;18.066;36.133;-12.695;38.574
1553642456;1.953;20.02;34.18;30.762;23.438
1553642456;7.324;20.508;35.645;31.25;29.785
1553642456;10.742;23.926;32.227;-1.953;51.758
1553642456;9.277;26.855;31.738;-8.789;63.965
1553642456;-0.488;29.785;32.715;-7.812;52.246
1553642456;-17.09;30.762;34.668;8.789;37.598
1553642456;-11.23;34.18;37.598;10.254;52.246
1553642456;4.395;37.109;40.527;-2.441;70.312
1553642456;16.113;36.133;40.039;5.859;77.637
1553642456;9.277;38.086;42.48;3.906;73.242
1553642456;-8.301;36.133;46.387;-8.301;55.176
1553642456;-11.719;36.133;43.457;-10.254;57.617
1553642456;-1.953;37.109;41.016;-3.906;42.48
1553642456;-6.348;33.691;38.086;11.23;11.23
1553642456;-9.277;32.715;37.598;3.906;15.137
1553642456;-8.789;34.668;35.645;-8.301;35.156
1553642456;-27.344;35.645;33.691;13.184;28.32
1553642456;-37.598;34.668;34.668;13.184;2.441
1553642456;-28.809;33.691;33.203;-22.461;-7.812
1553642456;-24.414;32.227;34.18;-49.316;6.836
1553642456;-27.832;32.227;37.109;-42.48;16.602
1553642456;-35.156;32.227;36.621;-39.551;1.465
1553642456;-41.504;29.297;34.668;-31.25;-13.184
1553642456;-29.785;27.832;35.645;-15.625;-6.836
1553642456;-11.719;29.785;38.086;-30.273;2.441
1553642456;-0.488;30.762;36.133;-29.297;-6.348
1553642456;-12.207;31.738;37.598;-19.531;-14.648
1553642456;-29.297;34.668;38.086;-27.344;2.441
1553642456;-32.715;31.738;35.156;-26.855;21.973
1553642456;-41.504;31.738;36.133;-28.32;20.02
1553642456;-53.223;33.691;34.18;-24.902;10.742
1553642456;-44.922;33.691;33.691;-27.832;23.926
1553642456;-25.391;36.621;36.133;-30.762;43.457
1553642456;-12.207;37.598;33.203;-39.062;41.504
1553642456;-14.16;39.062;32.227;-49.805;27.832
1553642456;-32.227;37.109;39.062;-25.391;25.879
1553642456;-33.691;36.621;43.457;-16.602;47.363
1553642456;-22.949;41.016;42.969;-18.555;62.5
1553642456;-22.949;42.48;40.039;-3.418;47.852
1553642456;-28.32;41.504;38.574;-8.789;35.156
1553642456;-20.996;41.504;41.016;-14.16;48.34
1553642456;-3.418;43.945;40.039;-6.348;58.594
1553642456;-14.16;42.969;36.133;-18.066;47.363
1553642456;-11.23;42.969;38.086;-18.066;41.992
1553642456;-8.789;43.945;41.016;-13.184;43.945
1553642456;-43.457;42.969;41.992;-53.223;31.738
1553642456;-51.758;38.086;43.457;-48.828;17.578
1553642456;-47.363;35.645;42.48;-14.16;-9.277
1553642456;-50.293;42.48;42.48;-44.922;-32.715
1553642456;-63.965;45.41;41.016;-69.336;-12.207
1553642456;-67.871;45.898;37.598;-68.359;58.105
1553642456;-50.293;42.48;42.969;-63.965;84.961
1553642456;-32.227;38.574;43.457;-54.688;76.172
1553642456;-29.297;37.109;42.48;-34.668;98.633
1553642456;-37.598;35.156;46.875;-35.645;102.051
1553642456;-26.367;34.18;48.34;-41.016;84.961
1553642456;-36.621;31.738;47.852;-11.23;72.266
1553642456;-45.898;34.18;46.387;-9.277;71.777
1553642456;-38.086;33.691;44.434;-35.156;78.613
1553642456;-35.156;30.273;42.969;-31.738;95.703
1553642456;-16.113;31.738;42.48;-22.461;116.211
1553642456;1.465;38.574;39.551;-11.23;128.418
1553642456;1.953;31.738;37.598;-8.301;144.043
1553642456;16.113;25.879;40.527;-38.574;155.762
1553642456;9.277;35.156;43.457;-30.273;137.695
1553642456;-4.883;38.574;42.969;-2.93;127.441
1553642456;5.371;40.527;41.504;-5.371;145.996
1553642456;28.809;43.457;42.969;-10.254;183.594
1553642456;37.109;37.598;43.945;17.578;178.223
1553642456;14.648;36.133;45.898;39.062;133.301
1553642456;18.555;41.992;46.875;26.367;119.141
1553642456;22.949;42.969;38.574;1.953;130.371
1553642456;15.137;46.387;32.715;-10.742;141.602
1553642456;23.926;47.363;29.297;1.953;146.973
1553642456;36.133;46.387;30.762;-0.977;145.02
1553642456;34.668;48.828;31.25;-3.906;108.398
1553642456;19.043;41.504;32.715;15.625;78.613
1553642456;29.297;33.203;35.645;9.277;75.684
1553642456;51.758;38.574;33.203;15.625;79.59
1553642456;40.039;35.156;33.203;22.461;82.031
1553642456;36.621;31.738;35.156;7.324;88.379
1553642456;41.992;29.785;35.156;24.902;90.82
1553642456;47.363;28.809;35.645;39.062;102.051
1553642456;45.898;27.832;41.504;31.738;115.234
1553642456;41.992;30.273;41.504;16.602;108.887
1553642456;47.363;33.691;38.086;21.973;86.914
1553642456;41.992;35.156;33.691;36.621;82.031
1553642456;39.551;37.109;35.156;22.461;99.609
1553642456;37.109;37.109;39.551;6.836;103.516
1553642456;41.992;36.133;39.551;15.137;120.117
1553642456;59.57;38.086;39.062;35.156;114.258
1553642456;56.641;35.645;37.109;42.969;75.195
1553642456;54.199;32.227;37.109;37.598;57.129
1553642456;76.66;31.738;40.039;37.109;53.711
1553642456;64.941;29.785;38.574;36.133;60.059
1553642456;26.367;30.273;36.621;19.531;78.125
1553642456;14.648;32.227;33.691;13.672;96.191
1553642456;21.973;35.645;32.227;5.859;105.469
1553642456;28.32;36.621;36.133;2.441;108.887
1553642456;32.715;30.762;37.598;10.742;100.098
1553642456;45.898;30.273;36.621;6.348;100.586
1553642456;51.27;33.203;36.133;5.371;109.863
1553642456;36.621;33.203;39.062;15.137;109.375
1553642456;33.691;33.691;40.527;15.625;81.543
1553642456;39.551;33.203;36.621;17.09;47.363
1553642456;29.297;33.691;35.645;20.02;14.648
1553642456;30.762;30.762;39.551;13.184;-1.465
1553642456;32.227;27.832;36.133;24.902;0
1553642456;28.809;29.785;30.273;35.645;-9.766
1553642456;34.18;27.832;30.762;19.531;-12.695
1553642456;33.203;25.391;31.738;6.348;25.391
1553642456;32.227;31.25;29.785;16.113;16.113
1553642456;41.992;27.832;31.25;28.32;-49.805
1553642456;41.504;22.461;31.738;23.438;-48.828
1553642456;33.203;18.555;29.297;2.441;-29.297
1553642456;29.785;17.578;29.297;-6.348;-36.621
1553642456;20.02;20.02;29.785;29.785;-47.363
1553642456;22.949;22.461;33.203;39.062;-38.574
1553642456;40.527;25.391;31.25;-4.883;-22.949
1553642456;47.363;27.832;31.25;-9.277;-18.066
1553642456;42.969;26.367;34.18;-4.395;-10.742
1553642456;36.621;23.926;31.25;-9.766;3.906
1553642456;29.785;22.461;32.227;-5.371;8.301
1553642456;51.758;24.414;36.133;3.906;5.859
1553642456;92.285;29.297;36.621;17.578;20.02
1553642456;68.359;25.879;34.18;31.738;21.484
1553642456;31.25;21.973;34.18;24.902;19.043
1553642456;18.555;25.391;32.227;4.883;41.016
1553642456;5.371;30.273;31.738;15.625;50.293
1553642456;6.836;27.344;37.598;31.738;37.109
1553642456;13.672;26.367;39.551;10.742;19.531
1553642456;24.902;31.738;39.551;-5.859;19.043
1553642456;25.879;34.18;41.016;-2.441;25.391
1553642456;22.461;33.203;40.039;8.301;21.973
1553642456;28.809;31.738;41.504;18.555;13.672
1553642456;36.621;33.691;41.016;8.301;10.742
1553642456;34.18;32.715;39.062;5.859;10.254
1553642456;25.879;27.832;39.062;18.555;17.578
1553642456;32.715;28.809;41.504;16.113;18.066
1553642456;48.34;30.273;41.016;0.488;5.859
1553642456;49.805;30.273;41.504;4.395;8.789
1553642456;39.551;30.762;42.969;18.066;20.02
1553642456;34.18;31.25;39.551;15.625;12.207
1553642456;32.715;33.203;36.133;3.418;12.207
1553642456;23.438;39.062;33.691;-1.465;39.551
1553642456;26.855;42.969;34.668;9.766;40.039
1553642456;38.574;38.086;36.133;19.531;21.484
1553642456;31.25;34.18;35.645;32.227;7.812
1553642456;38.086;38.086;33.203;20.02;16.602
1553642456;40.527;40.039;31.25;4.883;40.039
1553642456;22.949;34.668;33.691;11.719;41.016
1553642456;24.414;32.715;36.621;-8.789;37.598
1553642456;22.461;31.738;38.574;-17.578;40.527
1553642456;27.832;29.785;39.551;5.859;55.176
1553642456;42.969;30.762;36.621;35.645;71.289
1553642456;39.062;32.227;33.691;34.18;63.965
1553642456;32.227;31.25;35.156;8.301;60.547
1553642456;20.02;30.273;33.691;0.977;76.172
1553642456;13.672;33.203;31.25;1.465;71.777
1553642456;23.926;36.133;32.227;11.23;53.223
1553642456;36.133;35.156;34.668;15.137;44.434
1553642456;28.32;32.715;36.133;-3.418;63.965
1553642456;6.836;29.785;37.598;-0.488;80.078
1553642456;11.23;31.25;41.504;4.883;74.707
1553642456;27.832;33.203;40.039;19.531;65.43
1553642456;29.785;28.809;35.645;21.484;77.148
1553642456;20.02;26.855;35.645;9.277;84.961
1553642456;23.926;31.25;34.18;12.207;84.473
1553642456;35.645;33.203;31.738;17.09;85.449
1553642456;37.598;30.273;32.227;11.719;70.801
1553642456;38.574;32.715;37.109;26.855;76.66
1553642456;32.715;37.598;40.039;22.949;95.703
1553642456;34.18;34.668;42.48;9.277;95.215
1553642456;51.758;36.133;44.434;21.484;92.773
1553642456;51.27;41.504;40.039;32.715;89.844
1553642456;36.621;43.457;40.527;38.574;91.309
1553642456;41.992;41.016;44.434;28.809;87.402
1553642456;36.133;37.598;47.363;11.23;75.195
1553642456;19.043;38.086;49.805;8.789;80.566
1553642456;17.578;37.109;45.41;11.719;93.262
1553642456;32.715;40.039;41.992;26.855;91.797
1553642456;44.434;40.039;45.41;20.996;81.055
1553642456;38.086;35.156;48.828;11.719;83.008
1553642456;34.668;35.156;45.898;16.602;95.703
1553642456;41.504;33.691;44.434;27.832;93.75
1553642456;38.574;33.691;45.41;16.113;87.891
1553642456;37.109;35.156;43.457;2.441;87.891
1553642456;36.621;36.133;40.527;6.348;104.492
1553642456;30.762;33.691;41.992;23.438;113.281
1553642456;24.414;28.32;42.48;36.621;96.68
1553642456;28.32;29.297;43.945;25.879;84.961
1553642456;27.832;32.227;46.387;21.973;82.52
1553642456;15.625;31.738;42.969;27.344;88.867
1553642456;16.602;28.32;35.645;22.949;87.891
1553642456;33.691;33.203;28.809;20.508;77.148
1553642456;37.109;34.18;31.25;20.508;76.66
1553642456;27.344;32.227;32.227;15.625;86.426
1553642456;22.949;34.18;32.715;19.531;91.797
1553642456;23.438;32.227;38.086;32.227;75.195
1553642456;25.391;34.18;37.598;27.344;70.801
1553642456;28.809;40.527;32.715;18.066;91.797
1553642456;26.367;39.062;33.691;29.297;94.238
1553642457;34.18;36.621;33.203;26.855;80.566
1553642457;41.504;37.598;27.832;10.742;77.148
1553642457;39.062;38.574;29.297;3.906;103.027
1553642457;31.738;36.621;32.227;28.809;95.703
1553642457;29.297;35.645;30.273;44.434;64.453
1553642457;27.832;36.621;31.25;27.832;60.059
1553642457;10.742;34.18;30.762;5.371;66.895
1553642457;-4.883;33.203;33.203;3.906;82.031
1553642457;5.859;36.133;36.133;19.531;89.355
1553642457;21.973;37.598;36.621;30.762;77.637
1553642457;27.832;34.668;40.039;23.438;73.73
1553642457;28.809;35.645;40.527;15.137;85.449
1553642457;29.785;37.109;42.969;25.879;86.426
1553642457;40.527;35.645;39.551;30.273;77.637
1553642457;43.945;38.086;34.668;25.879;60.547
1553642457;38.574;36.621;37.109;23.926;58.594
1553642457;31.738;36.133;35.156;21.973;63.965
1553642457;25.879;39.062;31.25;21.484;54.199
1553642457;17.578;38.574;33.691;21.484;45.898
1553642457;12.207;34.18;36.621;11.719;55.664
1553642457;18.555;36.621;34.668;14.16;64.941
1553642457;34.18;41.016;36.133;17.09;64.941
1553642457;31.738;40.527;41.016;42.969;60.059
1553642457;21.973;41.504;42.48;58.105;62.5
1553642457;27.344;40.039;40.527;25.391;83.008
1553642457;34.18;41.016;39.551;11.719;75.195
1553642457;50.293;44.434;38.086;-2.441;41.016
1553642457;57.617;40.039;39.551;-6.836;32.227
1553642457;40.527;34.668;38.574;16.113;48.828
1553642457;19.531;38.086;34.18;18.066;47.363
1553642457;16.113;43.457;35.645;-0.488;36.621
1553642457;10.742;43.945;40.527;-5.859;33.691
1553642457;7.812;41.016;38.574;-8.301;46.875
1553642457;16.602;39.551;33.691;12.695;66.895
1553642457;38.086;41.016;37.109;42.48;69.824
1553642457;38.086;46.387;40.039;34.668;43.457
1553642457;18.555;52.734;38.574;16.113;36.133
1553642457;15.137;55.664;38.574;12.695;54.688
1553642457;27.832;54.199;35.156;13.672;48.828
1553642457;48.828;57.129;29.785;4.395;41.016
1553642457;49.805;58.594;25.879;-9.277;50.293
1553642457;41.992;57.129;26.367;0.977;59.57
1553642457;64.453;60.547;24.414;24.414;53.711
1553642457;65.918;65.43;20.996;9.766;53.711
1553642457;24.414;61.523;23.438;-29.785;49.805
1553642457;14.16;56.641;23.926;-3.906;62.012
1553642457;18.066;55.664;23.926;25.391;76.172
1553642457;18.066;57.617;22.461;6.836;61.523
1553642457;23.926;56.152;24.414;-3.418;45.41
1553642457;25.391;47.852;27.344;-9.766;43.945
1553642457;41.016;47.363;24.902;-0.977;61.523
1553642457;44.922;50.293;23.926;33.203;52.734
1553642457;41.504;50.781;20.996;21.973;26.855
1553642457;51.758;48.34;21.484;-16.113;35.645
1553642457;47.363;46.387;27.832;-0.488;60.059
1553642457;46.387;48.828;27.344;17.09;72.266
1553642457;49.805;51.27;28.32;20.508;64.941
1553642457;59.082;50.293;32.715;36.133;55.664
1553642457;57.617;42.969;35.156;50.293;63.477
1553642457;50.781;43.457;33.691;37.109;65.43
1553642457;44.434;49.805;32.227;19.043;51.27
1553642457;39.062;48.34;36.621;0;51.27
1553642457;53.223;46.387;35.156;-15.137;66.895
1553642457;44.434;45.898;33.203;-6.836;73.73
1553642457;38.574;40.039;38.086;2.93;68.359
1553642457;38.086;36.133;39.062;-8.789;57.129
1553642457;34.668;35.156;37.598;-13.672;61.035
1553642457;40.039;33.691;35.156;14.16;71.289
1553642457;43.457;35.645;38.086;22.949;56.152
1553642457;40.039;34.668;39.551;3.418;38.574
1553642457;37.598;30.762;39.062;11.719;54.688
1553642457;36.621;30.273;41.504;21.973;73.73
1553642457;34.18;24.902;41.504;27.832;84.961
1553642457;33.691;20.02;41.992;19.531;74.707
1553642457;34.668;30.273;41.016;9.277;64.453
1553642457;36.133;35.156;39.551;17.578;66.895
1553642457;33.691;32.227;38.574;20.02;60.059
1553642457;37.109;35.645;39.551;14.16;45.898
1553642457;33.691;34.668;42.48;5.859;41.016
1553642457;25.391;33.691;37.598;12.695;60.059
1553642457;41.504;32.227;40.039;48.828;68.359
1553642457;68.359;33.691;46.875;60.059;61.035
1553642457;57.617;33.203;41.992;39.551;54.199
1553642457;25.879;28.809;41.016;19.531;62.5
1553642457;19.531;29.785;42.48;0.977;75.195
1553642457;23.926;27.832;38.086;-6.348;69.336
1553642457;23.438;27.344;36.133;4.883;47.852
1553642457;20.02;25.391;41.016;11.23;57.617
1553642457;20.02;20.02;41.016;4.395;78.125
1553642457;25.879;20.508;37.109;11.23;65.918
1553642457;35.156;24.414;39.551;25.391;53.711
1553642457;41.504;24.414;39.551;21.484;54.199
1553642457;27.832;21.973;38.574;19.043;69.336
1553642457;9.766;23.438;36.133;26.367;72.266
1553642457;11.23;22.949;34.18;21.484;47.852
1553642457;10.254;20.02;39.062;16.602;36.133
1553642457;3.418;19.043;37.598;11.23;54.199
1553642457;2.93;18.066;34.668;2.93;69.336
1553642457;10.742;19.531;40.527;-7.812;62.012
1553642457;11.23;20.996;41.504;-3.418;49.316
1553642457;0;21.973;35.156;0.977;68.359
1553642457;1.953;22.949;35.645;7.324;91.309
1553642457;10.254;23.438;38.086;16.602;89.355
1553642457;19.043;19.531;32.227;8.301;70.801
1553642457;16.113;20.508;31.25;-2.441;64.453
1553642457;1.953;18.555;39.062;14.648;78.125
1553642457;3.906;13.184;41.504;34.668;74.707
1553642457;11.719;17.578;38.086;18.066;47.852
1553642457;7.812;20.508;36.133;-1.465;32.715
1553642457;1.953;20.508;36.133;9.277;53.223
1553642457;10.742;20.02;35.156;27.832;67.383
1553642457;20.02;21.484;34.18;22.949;61.035
1553642457;22.949;23.926;35.156;-4.883;64.453
1553642457;8.301;23.926;37.109;-13.184;91.797
1553642457;-2.93;22.461;36.133;9.766;96.191
1553642457;6.836;26.367;35.645;30.273;69.336
1553642457;14.648;24.902;36.621;19.531;54.199
1553642457;27.832;20.02;33.203;-5.859;59.082
1553642457;14.16;24.414;34.668;-1.465;72.754
1553642457;0.488;17.09;35.645;8.301;63.477
1553642457;17.578;15.137;29.785;-3.906;49.805
1553642457;12.695;23.438;26.367;-6.348;54.199
1553642457;0.977;24.902;26.367;6.348;69.824
1553642457;13.184;23.926;28.32;15.625;73.73
1553642457;18.066;20.996;36.133;12.207;57.617
1553642457;19.531;20.508;36.621;-3.418;47.852
1553642457;20.02;22.461;30.273;-3.418;56.641
1553642457;13.184;29.297;35.156;14.648;62.988
1553642457;20.996;29.297;35.645;16.602;62.012
1553642457;22.461;27.832;27.832;3.906;50.781
1553642457;9.766;30.273;28.32;-17.578;57.129
1553642457;1.953;28.32;33.203;-14.16;83.496
1553642457;2.441;27.344;33.691;2.441;82.031
1553642457;16.602;29.297;31.25;-0.488;70.801
1553642457;25.879;25.879;29.785;-5.371;77.148
1553642457;29.297;23.926;29.785;-0.977;90.82
1553642457;24.902;26.367;29.297;12.207;97.168
1553642457;13.184;24.414;30.762;16.602;77.637
1553642457;29.297;21.973;31.738;14.16;88.379
1553642457;44.434;24.902;31.738;42.48;143.066
1553642457;33.691;27.832;33.691;33.691;124.512
1553642457;20.996;22.949;32.227;-11.719;54.199
1553642457;17.09;19.531;26.367;-20.996;34.18
1553642457;-1.953;25.391;22.949;-22.461;53.223
1553642457;-28.809;28.809;25.879;-22.949;57.129
1553642457;-33.691;24.414;35.156;-24.414;35.156
1553642457;-20.508;24.902;40.039;-28.809;28.32
1553642457;-8.789;30.762;32.227;-12.695;38.574
1553642457;-12.207;34.18;27.832;7.324;58.105
1553642457;-18.555;33.203;38.086;6.836;56.152
1553642457;-8.301;29.785;46.875;-19.531;40.527
1553642457;19.043;29.297;45.41;-33.691;56.152
1553642457;6.348;31.25;45.898;-17.09;79.59
1553642457;-10.742;32.227;43.457;-1.465;79.102
1553642457;-5.371;30.273;34.668;0;51.27
1553642457;0;27.344;37.598;-20.02;44.434
1553642457;16.113;29.785;41.992;-7.324;67.383
1553642457;11.23;31.25;41.504;10.742;70.312
1553642457;4.395;32.715;43.945;0.488;50.781
1553642457;10.254;35.645;40.527;7.324;53.711
1553642457;17.09;35.645;38.086;8.301;67.871
1553642457;22.949;37.109;35.645;-0.488;62.012
1553642457;21.484;42.48;34.18;0;54.688
1553642457;29.785;38.086;37.598;0.977;48.34
1553642457;30.273;34.18;42.969;0;58.105
1553642457;13.672;36.621;39.551;5.371;85.449
1553642457;20.996;37.598;31.25;19.531;85.938
1553642457;38.574;42.48;39.062;17.09;67.383
1553642457;38.574;41.016;41.992;3.906;71.777
1553642457;35.156;36.133;34.668;11.23;81.055
1553642457;37.109;40.039;39.062;24.414;84.473
1553642457;33.691;41.992;41.016;20.996;79.102
1553642457;28.809;40.039;33.203;13.672;81.543
1553642457;28.809;35.156;36.133;15.625;93.262
1553642457;34.668;32.227;38.574;19.043;79.102
1553642457;38.574;36.621;36.133;15.625;58.594
1553642457;23.926;38.086;38.574;10.742;58.594
1553642457;9.766;38.086;40.527;9.766;75.684
1553642457;12.695;36.133;42.969;20.996;90.82
1553642457;20.996;33.691;37.109;32.227;75.195
1553642457;26.855;28.809;30.273;24.902;43.457
1553642457;23.926;23.926;37.598;14.648;45.898
1553642457;19.531;21.973;41.992;12.207;73.73
1553642457;21.973;22.461;44.922;9.277;77.637
1553642457;30.762;29.785;39.551;2.441;54.199
1553642457;43.457;36.621;29.785;-5.859;46.875
1553642457;47.363;40.039;32.227;0.977;74.219
1553642457;47.852;31.25;33.691;18.066;82.031
1553642457;37.598;25.879;38.574;15.625;57.129
1553642457;16.602;34.668;38.086;1.465;46.875
1553642457;-1.465;35.156;36.621;-0.488;64.941
1553642457;-0.488;31.25;41.016;8.789;77.637
1553642457;13.184;28.809;46.387;23.926;49.805
1553642457;26.855;28.32;44.434;12.695;28.809
1553642457;23.926;30.273;38.086;0.977;62.988
1553642457;14.16;32.227;33.203;15.137;83.496
1553642457;15.137;36.621;28.32;7.324;69.824
1553642457;22.461;36.133;32.227;-4.395;49.805
1553642457;27.344;40.527;40.527;-7.812;48.34
1553642457;21.484;43.945;40.039;2.441;69.336
1553642457;23.926;37.598;36.621;14.648;75.684
1553642457;21.484;36.133;30.273;4.395;48.828
1553642457;26.367;37.598;32.227;-13.672;43.457
1553642457;29.297;35.645;35.156;-0.488;64.941
1553642457;24.414;33.203;30.273;14.16;60.547
1553642457;20.02;33.203;34.668;12.207;61.035
1553642457;20.508;26.855;41.016;15.137;68.848
1553642457;22.461;20.02;39.062;4.883;72.266
1553642457;17.09;29.785;33.691;-7.812;69.824
1553642457;27.832;36.621;28.32;-6.348;62.5
1553642457;26.855;37.598;25.879;-10.254;50.293
1553642457;18.555;43.945;24.414;-10.742;61.035
1553642457;19.531;42.48;23.438;3.906;80.566
1553642457;20.996;41.992;25.391;10.254;82.52
1553642457;6.836;41.992;28.32;3.418;56.641
1553642457;0.488;39.062;25.391;-8.789;44.434
1553642457;12.695;40.039;25.879;-0.977;72.266
1553642457;11.719;37.109;30.273;10.742;83.984
1553642457;7.812;32.715;25.879;11.23;56.641
1553642457;11.23;34.668;20.996;4.883;40.527
1553642457;11.23;37.109;23.438;0.977;62.012
1553642457;13.184;36.133;20.02;7.812;75.195
1553642457;21.484;36.133;23.438;8.301;58.594
1553642457;24.414;37.598;28.32;-1.465;47.852
1553642457;18.066;36.133;30.762;-10.742;62.5
1553642457;14.648;36.621;34.668;-2.93;82.52
1553642457;11.719;38.086;36.133;5.859;68.848
1553642457;17.578;30.762;33.203;-5.859;32.227
1553642457;16.602;26.367;32.715;-12.207;40.527
1553642457;15.137;29.785;34.18;0;62.012
1553642457;10.742;32.227;33.691;18.555;63.477
1553642457;7.324;34.18;27.344;14.16;49.316
1553642457;22.461;35.156;25.879;3.418;55.176
1553642457;19.531;33.691;31.738;2.441;80.078
1553642457;16.113;30.762;23.926;11.23;85.938
1553642457;36.621;25.391;16.602;16.113;69.336
1553642457;45.41;21.484;27.344;6.836;55.664
1553642457;32.227;26.855;37.598;13.184;78.125
1553642457;14.16;34.668;37.109;18.066;90.332
1553642457;11.719;32.227;35.645;6.836;64.941
1553642457;19.043;25.879;35.156;-2.441;50.293
1553642457;15.625;26.367;36.133;-6.348;71.289
1553642457;9.277;25.391;35.645;5.859;79.102
1553642457;12.695;27.832;29.785;7.812;54.688
1553642457;23.438;30.273;26.855;-5.859;48.828
1553642457;29.297;30.273;29.785;11.23;55.664
1553642457;25.879;36.621;26.855;41.504;62.5
1553642457;19.531;40.039;27.832;34.668;67.871
1553642457;25.391;37.598;32.715;4.395;51.758
1553642457;41.992;41.504;22.461;-5.859;35.156
1553642457;45.41;41.504;26.855;0;57.129
1553642457;33.203;35.645;35.645;-6.348;71.289
1553642457;34.668;34.18;31.25;-5.371;50.293
1553642457;39.062;35.645;32.227;-1.465;37.109
1553642457;40.039;36.133;32.715;6.836;58.594
1553642457;41.992;36.133;27.832;28.32;81.543
1553642458;25.391;33.203;28.32;28.32;65.43
1553642458;13.672;30.762;37.598;6.348;53.711
1553642458;8.301;31.25;39.551;-2.93;70.801
1553642458;8.789;35.156;35.156;8.301;81.055
1553642458;25.391;36.133;37.109;22.949;68.848
1553642458;39.551;27.832;35.156;29.785;46.387
1553642458;48.34;27.344;31.25;29.785;49.805
1553642458;33.691;33.203;31.25;23.438;76.66
1553642458;9.766;31.25;35.645;21.973;85.449
1553642458;12.695;31.25;34.18;24.414;61.035
1553642458;16.113;33.203;27.832;1.953;43.457
1553642458;7.812;31.738;27.344;-9.277;70.801
1553642458;18.066;36.133;24.902;10.742;91.309
1553642458;30.273;35.156;26.367;13.672;68.359
1553642458;28.32;29.785;28.32;10.742;50.781
1553642458;20.508;29.785;29.297;16.602;74.219
1553642458;18.066;28.809;28.32;11.23;90.82
1553642458;25.879;27.832;28.32;7.812;80.078
1553642458;34.18;27.344;28.32;8.789;63.965
1553642458;35.645;27.344;27.832;17.578;70.801
1553642458;30.762;26.855;30.762;35.645;92.285
1553642458;28.32;23.926;32.715;44.434;78.613
1553642458;38.086;24.414;33.691;30.762;52.734
1553642458;53.711;27.832;35.156;29.297;59.082
1553642458;46.875;28.809;38.086;31.738;77.148
1553642458;27.344;32.715;34.18;15.625;72.754
1553642458;23.926;34.668;29.785;2.441;44.434
1553642458;33.691;32.227;38.574;-0.488;29.785
1553642458;22.949;28.809;43.945;4.883;56.152
1553642458;3.418;27.344;39.062;14.16;76.172
1553642458;14.648;30.762;39.551;20.996;56.152
1553642458;27.832;32.227;46.387;7.324;43.457
1553642458;25.391;30.273;49.316;7.812;62.5
1553642458;15.137;33.691;52.246;27.832;79.102
1553642458;20.996;35.645;46.387;24.414;74.707
1553642458;33.691;34.668;38.574;7.812;48.828
1553642458;13.672;33.203;36.133;3.906;58.594
1553642458;0.977;31.25;37.109;24.902;82.52
1553642458;21.973;32.227;36.621;35.156;77.148
1553642458;33.691;34.668;36.133;20.02;56.152
1553642458;25.879;36.621;37.109;2.93;54.688
1553642458;11.23;32.715;32.715;19.043;76.172
1553642458;13.672;25.879;27.344;28.32;82.52
1553642458;28.809;24.414;31.25;12.207;48.34
1553642458;40.527;29.297;34.18;-9.277;28.32
1553642458;33.203;31.25;34.668;-6.348;64.453
1553642458;20.02;23.926;38.086;20.996;80.078
1553642458;21.484;21.484;38.086;18.066;58.594
1553642458;22.949;24.902;38.574;0.488;44.922
1553642458;18.555;25.879;38.086;11.719;61.523
1553642458;18.555;28.32;38.086;33.203;81.055
1553642458;26.855;29.297;40.039;24.414;67.383
1553642458;31.25;25.391;38.086;-2.93;39.551
1553642458;24.414;20.996;35.645;1.953;43.457
1553642458;20.996;25.391;42.48;29.785;76.172
1553642458;33.691;29.297;45.41;39.062;62.5
1553642458;50.293;29.297;42.48;20.508;34.18
1553642458;60.059;34.18;39.551;-1.953;49.805
1553642458;51.758;30.273;37.598;-0.488;78.125
1553642458;39.062;25.879;32.715;12.207;81.543
1553642458;27.832;26.367;32.715;24.414;58.594
1553642458;16.602;18.066;38.086;15.137;49.316
1553642458;2.93;8.789;42.969;3.906;71.289
1553642458;-11.719;14.648;38.574;20.508;82.52
1553642458;-13.672;25.879;34.18;29.785;69.824
1553642458;-4.883;28.32;41.016;3.418;59.082
1553642458;8.789;28.809;44.434;0.488;62.012
1553642458;7.324;25.391;41.016;24.414;75.195
1553642458;11.719;22.461;36.621;19.531;73.242
1553642458;26.855;26.855;38.574;4.883;49.316
1553642458;29.785;26.367;40.039;-0.488;41.992
1553642458;31.738;18.066;38.086;5.371;59.57
1553642458;34.668;23.438;38.086;19.043;68.359
1553642458;36.621;31.25;36.133;21.973;41.016
1553642458;41.016;28.809;39.062;14.16;30.762
1553642458;29.785;27.832;40.039;11.23;69.824
1553642458;24.902;28.32;37.598;14.648;79.59
1553642458;29.785;31.25;35.156;14.648;46.875
1553642458;30.273;36.621;35.156;4.883;32.715
1553642458;29.297;39.062;42.48;1.953;61.035
1553642458;23.926;39.551;43.457;9.766;81.055
1553642458;23.926;36.133;39.062;15.137;62.988
1553642458;28.32;34.668;34.668;2.93;31.738
1553642458;26.367;32.715;32.715;-6.348;37.109
1553642458;20.996;30.762;26.367;11.23;66.406
1553642458;24.414;36.133;32.715;26.855;65.43
1553642458;29.785;41.016;38.574;23.438;48.828
1553642458;28.32;41.992;32.227;12.207;47.852
1553642458;27.832;42.48;41.992;17.09;66.406
1553642458;24.414;40.039;45.41;23.926;64.453
1553642458;30.762;39.551;39.062;16.113;28.809
1553642458;37.109;37.598;43.945;-0.977;20.02
1553642458;21.973;40.039;48.828;2.441;54.199
1553642458;8.301;40.527;49.316;14.16;63.965
1553642458;11.23;36.621;41.992;9.766;38.086
1553642458;17.578;35.645;41.016;4.395;37.598
1553642458;22.461;35.645;47.852;8.789;67.871
1553642458;32.715;34.668;48.828;18.555;86.426
1553642458;34.18;36.133;43.945;32.715;78.125
1553642458;32.715;37.109;40.527;25.391;56.641
1553642458;31.25;31.738;42.969;13.672;62.012
1553642458;28.809;25.879;44.434;32.715;86.426
1553642458;30.762;28.32;45.898;22.461;82.52
1553642458;35.156;32.715;43.457;-2.441;50.781
1553642458;36.133;36.133;43.457;-2.441;50.781
1553642458;14.648;34.668;41.016;6.348;72.266
1553642458;-4.395;29.785;38.086;11.719;85.938
1553642458;11.719;26.367;40.039;3.418;83.496
1553642458;29.785;30.273;41.016;-7.324;72.266
1553642458;28.809;34.668;39.551;0.977;87.402
1553642458;20.508;31.25;33.691;22.949;100.098
1553642458;11.719;32.227;32.227;24.902;77.148
1553642458;20.02;31.738;33.691;1.465;54.199
1553642458;23.926;33.691;32.715;-3.906;70.801
1553642458;21.484;40.527;40.039;11.23;98.145
1553642458;28.809;41.992;44.434;19.531;92.285
1553642458;32.715;40.039;46.875;10.742;59.57
1553642458;38.086;31.738;42.969;-1.953;52.246
1553642458;50.781;33.203;33.203;23.926;102.539
1553642458;47.363;37.109;44.434;42.969;103.027
1553642458;25.391;27.832;46.387;16.602;41.504
1553642458;9.277;23.438;38.086;-7.812;33.203
1553642458;2.93;22.461;47.852;7.812;73.73
1553642458;8.789;18.555;54.688;25.391;84.473
1553642458;9.766;19.531;53.223;8.301;47.852
1553642458;15.625;18.555;49.805;-1.953;28.32
1553642458;19.043;18.066;50.781;-2.441;55.664
1553642458;15.137;24.414;48.34;8.789;83.496
1553642458;18.066;27.344;44.922;16.113;63.965
1553642458;25.391;25.879;41.016;5.371;45.898
1553642458;29.785;28.32;39.551;6.348;83.008
1553642458;18.066;27.832;41.504;22.949;103.516
1553642458;11.719;24.902;41.016;34.18;78.613
1553642458;15.625;27.344;41.504;27.344;55.664
1553642458;8.789;23.926;42.969;25.879;58.594
1553642458;4.395;24.414;35.156;28.809;84.961
1553642458;14.648;30.273;28.32;24.414;92.285
1553642458;20.508;26.367;39.062;12.695;62.012
1553642458;14.16;21.973;43.457;2.93;57.617
1553642458;5.859;20.996;39.551;8.789;79.102
1553642458;8.789;20.02;34.668;13.672;74.707
1553642458;10.742;18.555;31.738;13.184;61.523
1553642458;10.742;21.484;31.25;10.254;49.805
1553642458;13.184;24.414;32.227;6.836;65.43
1553642458;9.766;24.414;37.109;15.137;87.402
1553642458;9.277;25.879;34.668;18.066;78.613
1553642458;24.414;27.832;33.203;10.742;62.012
1553642458;30.762;30.273;32.715;1.953;67.871
1553642458;22.461;31.738;25.879;13.184;88.379
1553642458;24.414;29.297;33.691;26.367;85.449
1553642458;18.555;26.367;41.504;17.578;53.711
1553642458;13.672;24.902;36.133;-0.977;37.109
1553642458;21.484;24.414;34.18;3.906;62.5
1553642458;28.809;24.902;36.133;14.16;74.707
1553642458;30.273;23.438;40.039;8.789;52.734
1553642458;20.508;23.438;40.039;-0.488;35.645
1553642458;3.906;24.414;35.645;8.789;54.199
1553642458;10.742;23.438;33.203;18.555;69.824
1553642458;23.926;25.879;31.25;9.277;50.781
1553642458;22.949;24.902;30.762;2.441;34.18
1553642458;17.09;20.996;32.715;0.488;53.711
1553642458;2.441;25.391;36.133;17.578;78.125
1553642458;7.324;25.391;39.062;23.926;65.918
1553642458;30.273;22.949;36.621;4.395;37.598
1553642458;38.086;26.367;33.691;9.277;59.082
1553642458;48.828;26.855;37.598;35.156;91.797
1553642458;49.316;27.832;39.551;49.316;75.195
1553642458;13.672;27.344;36.133;20.996;43.945
1553642458;8.301;32.715;34.668;-0.488;41.504
1553642458;20.02;41.992;35.156;10.254;69.824
1553642458;22.461;44.434;33.203;18.066;78.613
1553642458;18.066;45.41;30.273;5.859;52.246
1553642458;25.391;48.34;25.391;-14.648;49.316
1553642458;24.414;50.781;20.508;-10.254;78.125
1553642458;20.508;53.223;21.484;3.418;82.031
1553642458;29.297;53.223;25.391;11.23;62.988
1553642458;24.902;48.828;22.461;5.859;50.781
1553642458;30.762;45.41;28.809;4.883;69.336
1553642458;30.273;41.504;38.086;21.484;77.637
1553642458;27.832;42.48;33.691;20.02;62.5
1553642458;40.039;47.363;30.762;3.906;42.48
1553642458;46.875;48.34;30.762;4.883;45.898
1553642458;34.18;47.363;33.203;8.301;76.66
1553642458;32.227;43.457;38.574;33.203;76.172
1553642458;54.688;42.969;36.133;57.129;45.898
1553642458;51.758;38.574;32.715;20.996;41.992
1553642458;34.668;35.645;31.25;-18.555;74.219
1553642458;22.949;35.156;31.25;-14.16;86.426
1553642458;21.484;33.203;31.738;-3.418;63.477
1553642458;26.855;34.18;34.18;-9.766;46.387
1553642458;32.227;35.156;28.809;1.953;69.824
1553642458;33.691;39.062;20.508;13.672;92.285
1553642458;39.551;32.715;31.738;5.859;71.289
1553642458;55.176;30.762;41.504;5.371;51.27
1553642458;53.711;39.062;38.574;19.531;73.73
1553642458;32.715;35.156;38.086;26.367;84.473
1553642458;18.066;31.738;39.062;21.973;73.242
1553642458;20.508;32.715;39.551;21.973;57.617
1553642458;21.973;33.203;40.527;7.324;49.316
1553642458;18.555;33.691;41.016;-1.953;74.219
1553642458;20.02;33.691;38.086;13.672;78.613
1553642458;22.461;34.668;35.645;10.254;40.527
1553642458;21.973;34.668;35.645;-4.395;36.621
1553642458;19.531;36.133;37.109;-3.418;75.684
1553642458;18.066;34.668;40.039;11.719;78.125
1553642458;25.391;31.25;41.504;20.508;51.758
1553642458;34.668;33.691;39.551;6.348;40.039
1553642458;37.598;38.086;40.527;-2.441;63.965
1553642458;29.785;33.691;45.41;5.371;77.637
1553642458;22.949;26.367;39.551;21.973;55.176
1553642458;22.949;24.414;37.109;16.113;34.668
1553642458;19.531;26.855;42.969;-6.348;49.316
1553642458;12.207;35.645;41.992;0;73.73
1553642458;12.207;37.109;36.621;7.812;62.5
1553642458;29.297;37.109;39.062;-1.953;48.828
1553642458;31.25;40.527;40.039;-4.395;52.734
1553642458;21.973;39.551;34.18;7.324;70.312
1553642458;38.574;35.645;32.715;20.996;68.848
1553642458;36.621;30.762;35.156;10.254;39.062
1553642458;22.949;32.715;39.551;-6.836;34.18
1553642458;14.648;35.156;43.457;7.812;64.941
1553642458;3.418;33.203;40.527;24.414;82.52
1553642458;3.906;34.18;33.203;14.16;68.848
1553642458;11.719;36.133;27.832;-2.93;47.852
1553642458;8.301;36.133;30.273;0.488;59.082
1553642458;2.441;38.086;30.762;18.555;78.125
1553642458;11.23;41.016;31.25;18.066;74.707
1553642458;19.043;40.527;32.715;9.277;52.734
1553642458;22.461;36.621;34.668;18.555;51.758
1553642458;27.344;35.645;40.039;15.625;76.66
1553642458;35.645;39.551;41.016;10.254;77.637
1553642458;40.527;41.992;37.109;11.719;50.293
1553642458;37.598;38.086;35.645;0.488;41.504
1553642458;32.227;32.227;37.598;4.883;68.848
1553642458;33.203;34.668;34.18;17.578;83.984
1553642458;29.297;36.133;37.598;12.207;59.57
1553642458;25.391;36.133;43.457;-2.93;39.551
1553642458;32.227;42.969;43.457;-0.488;80.078
1553642458;25.879;44.922;42.48;16.602;102.539
1553642458;19.043;44.434;42.48;31.738;75.195
1553642458;19.531;42.969;44.922;27.832;50.781
1553642458;24.902;41.992;39.551;7.324;64.941
1553642458;22.949;41.016;34.18;8.789;92.285
1553642458;18.066;39.062;37.598;29.785;83.496
1553642458;22.949;34.668;40.039;36.133;53.711
1553642458;26.367;33.203;33.691;21.484;61.523
1553642458;20.508;32.227;29.297;26.367;94.238
1553642458;21.484;28.32;36.133;20.508;73.73
1553642458;33.203;27.344;41.504;12.695;29.785
1553642458;40.527;31.25;41.992;10.742;47.852
1553642458;47.363;39.551;32.227;30.273;110.352
1553642458;38.086;35.645;33.691;47.363;111.328
1553642458;16.113;21.973;42.969;4.883;43.945
1553642458;13.672;14.648;42.48;-14.648;23.926
1553642458;24.902;13.672;37.598;-1.465;61.035
1553642458;19.531;11.23;40.039;16.113;74.219
1553642459;12.695;8.789;46.387;22.949;52.246
1553642459;18.555;8.789;44.434;3.418;38.574
1553642459;9.766;6.348;43.945;1.953;44.922
1553642459;6.348;5.859;46.387;14.648;59.082
1553642459;20.508;12.695;48.34;18.066;62.5
1553642459;15.625;16.602;49.805;23.438;38.574
1553642459;3.906;9.277;46.875;19.043;39.551
1553642459;-3.906;8.789;42.969;10.254;73.242
1553642459;-5.859;11.719;39.062;16.113;85.449
1553642459;8.301;7.324;46.875;20.996;64.941
1553642459;12.207;4.395;51.27;8.789;48.34
1553642459;4.395;6.836;43.457;1.953;69.336
1553642459;3.418;12.207;38.086;14.648;85.449
1553642459;12.207;14.16;38.086;24.414;60.059
1553642459;19.043;13.184;38.574;10.254;35.645
1553642459;11.23;12.695;40.039;6.836;55.176
1553642459;13.184;13.184;40.039;26.855;83.984
1553642459;22.949;15.625;39.062;37.598;70.801
1553642459;24.902;15.625;40.527;23.926;46.387
1553642459;22.949;20.508;40.039;6.836;63.965
1553642459;17.09;24.902;41.504;-0.977;82.52
1553642459;14.16;20.508;39.062;15.625;71.777
1553642459;18.066;22.949;32.715;21.973;53.223
1553642459;16.602;21.973;36.133;5.371;55.664
1553642459;29.297;20.02;42.48;22.949;83.984
1553642459;50.293;27.832;40.527;44.922;96.68
1553642459;42.969;27.344;39.551;21.973;78.613
1553642459;26.855;30.762;44.434;-9.277;54.688
1553642459;23.926;34.668;45.898;-1.953;67.383
1553642459;23.926;35.156;46.387;12.695;76.66
1553642459;38.086;37.109;48.828;36.621;46.387
1553642459;50.781;40.527;43.945;38.574;30.273
1553642459;18.555;38.086;42.48;-10.742;53.223
1553642459;-1.953;34.668;41.992;-0.488;77.637
1553642459;12.695;39.551;38.574;23.438;70.801
1553642459;2.93;41.504;40.527;7.812;47.852
1553642459;2.441;41.504;43.945;-4.883;48.34
1553642459;6.836;37.109;45.41;2.93;67.871
1553642459;4.883;36.621;42.48;14.16;64.453
1553642459;13.184;39.062;42.969;5.859;42.48
1553642459;15.625;39.062;44.434;-10.742;41.016
1553642459;15.625;42.48;43.945;-6.348;62.988
1553642459;16.602;42.48;42.48;12.695;68.359
1553642459;31.738;39.551;32.715;14.648;49.316
1553642459;49.316;41.504;32.227;12.695;37.598
1553642459;64.941;39.551;42.48;41.992;63.965
1553642459;47.363;36.133;45.898;40.527;86.914
1553642459;6.348;37.109;44.922;5.371;72.266
1553642459;3.418;39.551;46.875;3.418;47.363
1553642459;12.207;37.598;47.852;11.719;49.805
1553642459;22.949;36.621;41.016;12.695;67.871
1553642459;45.41;41.016;39.062;3.418;64.941
1553642459;34.18;39.551;43.945;-11.719;41.016
1553642459;10.254;38.574;41.504;-8.301;44.922
1553642459;9.766;40.039;39.062;15.137;82.031
1553642459;16.113;35.156;40.039;24.414;81.055
1553642459;29.785;32.227;38.574;18.066;47.363
1553642459;41.016;32.227;41.504;-3.418;38.086
1553642459;32.227;31.738;41.016;7.324;66.406
1553642459;16.113;29.297;38.574;30.762;80.078
1553642459;22.461;26.855;34.18;6.348;58.594
1553642459;34.18;30.762;37.109;-2.441;38.086
1553642459;21.973;33.691;46.875;11.719;59.082
1553642459;15.137;32.227;42.48;26.855;81.543
1553642459;22.461;29.785;35.156;31.738;56.152
1553642459;32.715;31.738;43.945;4.883;38.086
1553642459;34.18;34.18;43.945;-13.184;61.523
1553642459;18.555;35.156;36.133;9.766;80.566
1553642459;18.066;34.668;41.016;21.973;75.684
1553642459;32.227;32.227;42.48;6.836;52.734
1553642459;34.18;33.691;41.016;-3.418;51.758
1553642459;26.855;36.133;41.016;-0.977;76.172
1553642459;22.949;39.551;41.016;11.719;81.543
1553642459;24.902;45.898;44.434;13.184;57.617
1553642459;26.367;46.875;46.875;-7.324;50.781
1553642459;17.09;41.504;43.457;2.441;68.359
1553642459;20.996;39.551;43.457;18.555;76.66
1553642459;33.203;42.48;44.922;17.09;64.941
1553642459;23.438;42.48;42.969;20.508;50.781
1553642459;7.324;35.645;43.945;16.113;71.289
1553642459;3.906;29.297;43.457;5.859;93.262
1553642459;15.137;28.809;39.551;2.441;88.867
1553642459;29.297;28.32;39.062;-3.418;62.012
1553642459;22.949;25.879;36.621;-8.301;42.48
1553642459;10.254;23.438;36.621;9.277;57.617
1553642459;15.625;24.902;31.25;23.926;67.383
1553642459;22.461;28.32;25.879;6.836;54.199
1553642459;27.832;27.344;31.25;-7.324;46.387
1553642459;34.668;23.438;34.668;10.742;66.406
1553642459;38.086;27.344;37.598;33.691;77.148
1553642459;33.691;31.25;33.691;41.504;49.316
1553642459;38.086;28.809;30.273;22.949;43.457
1553642459;35.156;28.809;38.574;-4.395;74.707
1553642459;23.438;26.855;40.039;-2.93;80.078
1553642459;17.09;23.438;35.156;4.395;56.152
1553642459;17.578;24.902;33.203;16.602;37.598
1553642459;23.926;25.879;30.762;18.066;51.27
1553642459;23.926;22.949;30.762;16.602;72.266
1553642459;24.902;26.855;37.109;14.16;61.035
1553642459;30.273;28.809;35.156;-6.836;32.227
1553642459;35.645;25.391;34.18;-5.859;37.598
1553642459;25.391;22.461;39.551;7.812;65.918
1553642459;17.09;17.578;38.086;9.766;65.43
1553642459;18.066;18.066;30.762;0.488;43.457
1553642459;26.367;21.484;30.273;-14.16;44.434
1553642459;29.785;21.484;40.039;4.395;75.684
1553642459;26.367;15.137;41.992;19.043;88.867
1553642459;30.273;11.719;38.574;26.855;59.57
1553642459;24.902;17.09;34.18;16.113;40.039
1553642459;27.832;20.996;31.738;-1.953;66.406
1553642459;20.508;15.625;33.203;12.207;82.031
1553642459;3.418;12.695;36.133;16.113;63.965
1553642459;4.395;15.625;38.086;-5.859;47.852
1553642459;9.277;17.578;37.598;-17.578;59.082
1553642459;12.207;16.113;36.621;-3.418;76.172
1553642459;18.555;16.602;33.691;8.789;71.777
1553642459;22.461;17.578;33.203;0.977;58.105
1553642459;29.785;18.066;36.621;-10.254;62.012
1553642459;30.273;21.973;37.109;11.23;92.773
1553642459;27.344;24.902;35.645;26.855;101.562
1553642459;30.762;25.391;31.25;23.926;68.359
1553642459;27.344;24.902;31.25;14.16;54.199
1553642459;16.113;21.484;41.504;0;77.637
1553642459;13.184;23.438;41.992;12.207;71.777
1553642459;20.508;26.367;37.598;26.367;37.109
1553642459;27.344;21.484;35.156;12.207;33.691
1553642459;20.508;21.973;33.691;2.93;50.293
1553642459;6.348;24.414;35.645;19.043;63.477
1553642459;14.648;21.973;35.156;20.996;51.758
1553642459;23.438;20.996;33.691;-4.395;33.203
1553642459;12.207;18.066;36.621;-15.625;35.156
1553642459;12.695;20.508;37.109;2.441;53.223
1553642459;20.996;25.391;33.203;13.184;60.547
1553642459;16.113;24.902;27.832;15.137;34.668
1553642459;22.949;22.461;24.902;6.348;36.133
1553642459;23.926;21.973;30.273;13.672;73.242
1553642459;15.625;20.02;34.18;23.438;76.66
1553642459;19.531;20.996;29.785;4.395;41.504
1553642459;16.602;26.367;25.391;-5.371;35.156
1553642459;3.418;24.902;24.902;8.789;66.406
1553642459;-0.977;25.391;30.762;8.301;79.59
1553642459;1.465;29.297;35.645;-8.789;64.453
1553642459;5.859;32.715;36.133;-24.414;49.805
1553642459;16.602;34.18;33.691;-14.648;73.242
1553642459;25.391;31.738;35.156;9.277;103.027
1553642459;33.203;31.25;36.621;12.695;97.168
1553642459;38.086;32.227;35.645;-0.977;61.035
1553642459;30.762;31.738;32.715;-13.672;55.176
1553642459;34.18;36.133;29.297;2.441;85.938
1553642459;27.832;35.156;34.668;20.508;89.844
1553642459;14.648;32.715;34.18;14.648;60.059
1553642459;5.371;33.203;29.785;3.418;49.805
1553642459;3.906;31.25;31.25;15.625;76.66
1553642459;15.625;26.855;32.227;29.297;88.379
1553642459;24.414;23.926;33.203;22.949;75.195
1553642459;25.879;23.926;33.203;8.301;62.5
1553642459;25.879;26.855;34.668;6.836;67.871
1553642459;28.32;24.902;25.879;19.531;69.824
1553642459;34.668;23.438;21.484;20.996;57.129
1553642459;41.504;23.926;32.715;14.16;46.387
1553642459;44.434;22.949;36.133;9.277;58.105
1553642459;36.133;27.832;34.668;10.742;84.473
1553642459;30.273;28.809;32.715;19.531;81.055
1553642459;41.504;22.949;35.156;23.438;56.152
1553642459;50.781;21.973;33.203;8.789;56.641
1553642459;35.645;26.367;33.691;2.441;85.449
1553642459;22.949;26.855;35.156;13.184;89.355
1553642459;32.227;26.367;34.18;11.23;62.5
1553642459;28.32;26.855;33.203;-3.418;57.129
1553642459;22.949;29.785;29.785;0.977;86.914
1553642459;29.297;29.785;26.855;17.09;97.656
1553642459;32.715;26.367;26.367;10.742;57.617
1553642459;34.668;31.25;29.785;19.043;30.762
1553642459;31.25;34.18;35.645;34.668;67.871
1553642459;27.832;30.762;36.133;19.531;90.332
1553642459;22.949;30.273;30.762;10.254;64.453
1553642459;21.484;30.762;26.367;-6.348;44.922
1553642459;28.809;34.668;26.855;-7.812;61.035
1553642459;30.273;39.551;34.668;17.578;88.379
1553642459;32.715;40.527;38.574;26.855;84.961
1553642459;40.527;40.039;40.039;17.578;57.617
1553642459;35.645;38.086;39.551;3.906;56.152
1553642459;22.461;38.574;39.551;15.625;76.172
1553642459;14.16;34.18;40.039;28.809;71.777
1553642459;21.484;31.25;38.086;4.395;43.945
1553642459;31.738;34.668;39.551;0.488;40.039
1553642459;24.414;36.621;39.551;23.926;71.777
1553642459;13.184;34.18;39.551;47.852;83.496
1553642459;26.367;32.227;41.016;46.387;55.664
1553642459;31.25;33.691;36.133;11.23;39.062
1553642459;12.207;33.203;28.32;-7.324;62.5
1553642459;10.254;34.18;29.785;-0.488;88.867
1553642459;14.648;35.645;31.738;12.207;76.172
1553642459;17.578;34.18;30.273;1.953;47.852
1553642459;22.461;35.156;34.18;-8.789;55.664
1553642459;18.066;36.621;35.156;2.93;93.75
1553642459;19.043;35.645;32.227;14.648;81.543
1553642459;32.715;34.668;32.715;7.324;38.086
1553642459;47.363;34.668;27.344;-5.371;40.527
1553642459;44.922;37.109;20.508;0.488;72.266
1553642459;23.926;32.715;27.832;11.23;83.008
1553642459;19.531;28.32;33.203;7.812;52.246
1553642459;36.133;29.785;31.738;-1.465;39.551
1553642459;29.785;29.297;29.297;19.531;65.918
1553642459;17.09;30.762;27.832;40.527;82.031
1553642459;20.996;36.133;29.785;34.18;64.941
1553642459;27.832;36.621;30.762;8.301;47.852
1553642459;32.227;34.668;28.809;-18.555;69.336
1553642459;30.273;33.203;31.738;-1.953;96.191
1553642459;33.203;32.227;34.18;23.438;97.656
1553642459;39.062;31.738;34.18;25.879;85.938
1553642459;25.879;30.762;38.086;8.789;77.148
1553642459;1.953;32.227;35.645;-3.906;85.938
1553642459;6.836;29.785;30.762;9.277;93.262
1553642459;18.555;28.809;27.344;11.23;70.801
1553642459;20.508;30.273;21.973;-0.977;50.781
1553642459;21.973;31.25;22.461;4.883;66.895
1553642459;20.02;33.203;24.414;17.578;77.148
1553642459;23.438;31.738;22.949;19.043;52.246
1553642459;33.691;32.227;26.367;9.766;41.016
1553642459;37.598;33.203;27.344;-0.977;72.266
1553642459;26.367;32.715;28.32;11.719;85.449
1553642459;29.297;32.715;31.25;28.32;66.895
1553642459;38.086;33.691;25.879;14.16;55.176
1553642459;40.039;37.598;23.438;2.93;74.219
1553642459;32.227;36.133;26.367;14.16;98.633
1553642459;26.367;31.25;25.879;21.484;83.496
1553642459;29.785;29.297;26.855;19.531;60.547
1553642459;26.855;27.832;25.879;19.531;69.824
1553642459;21.484;28.32;20.996;10.742;100.586
1553642459;51.27;30.762;18.066;15.137;99.609
1553642459;86.426;31.738;17.578;29.785;61.523
1553642459;66.406;28.809;20.02;13.672;47.852
1553642459;22.949;24.414;19.531;0.488;69.336
1553642459;1.953;24.414;18.555;14.16;89.844
1553642459;5.859;27.344;21.484;41.016;68.359
1553642459;7.324;29.785;22.949;25.391;40.527
1553642459;1.465;28.809;24.414;-3.906;70.801
1553642459;10.742;28.32;28.32;9.766;99.121
1553642459;25.391;31.25;28.809;22.461;77.637
1553642459;32.227;35.156;27.832;12.207;52.246
1553642459;32.227;34.18;29.785;-0.977;59.082
1553642459;24.902;26.855;23.926;-1.465;81.543
1553642459;25.391;26.367;19.531;10.742;77.148
1553642459;26.367;29.297;28.32;11.23;40.527
1553642459;23.926;33.203;31.25;-8.301;33.691
1553642459;25.391;34.18;26.367;-3.906;66.895
1553642459;24.902;37.598;26.367;9.766;76.172
1553642459;21.973;36.621;30.273;18.066;50.781
1553642459;15.137;34.18;31.738;3.418;37.109
1553642459;28.809;33.691;30.762;-7.812;60.059
1553642459;63.477;37.109;31.25;36.133;70.801
1553642459;51.27;39.062;34.18;41.992;50.293
1553642459;10.254;36.621;33.691;-5.859;32.227
1553642459;0;38.086;30.762;-10.254;56.152
1553642459;7.324;43.457;31.25;4.395;73.242
1553642460;14.648;44.434;34.18;13.184;56.641
1553642460;16.113;41.504;35.156;14.648;46.875
1553642460;7.324;40.527;30.762;-8.301;55.176
1553642460;11.719;44.434;29.297;-12.695;75.684
1553642460;16.602;47.852;34.18;6.348;77.637
1553642460;17.09;50.781;36.133;12.695;54.688
1553642460;20.02;51.758;35.645;-0.977;56.152
1553642460;16.602;47.852;40.527;0;93.262
1553642460;16.602;43.457;38.574;12.207;104.98
1553642460;18.555;41.504;37.598;13.184;73.242
1553642460;27.344;39.551;37.598;12.207;58.594
1553642460;29.297;38.574;33.691;12.207;80.078
1553642460;14.648;37.598;35.645;8.301;88.867
1553642460;13.672;37.598;35.156;9.766;75.195
1553642460;20.996;34.668;34.668;8.301;60.547
1553642460;25.879;29.297;39.062;5.859;76.66
1553642460;30.762;28.32;39.062;9.766;105.469
1553642460;33.691;31.738;39.062;20.508;102.539
1553642460;28.809;31.738;40.039;15.137;77.148
1553642460;20.02;27.832;38.574;18.066;78.613
1553642460;12.695;28.32;40.527;33.691;102.539
1553642460;9.277;29.785;40.527;42.969;101.562
1553642460;21.484;26.855;41.992;34.668;78.613
1553642460;23.926;23.926;42.48;4.395;65.43
1553642460;8.301;26.367;40.039;4.395;91.797
1553642460;0.977;31.25;41.992;3.906;110.352
1553642460;-3.418;33.691;43.945;-9.277;81.543
1553642460;0;36.133;47.852;-6.836;64.941
1553642460;1.465;40.039;50.781;7.812;90.332
1553642460;3.418;42.48;47.363;11.719;105.957
1553642460;14.16;44.434;44.922;22.461;85.938
1553642460;9.766;45.41;45.41;-5.371;65.43
1553642460;7.324;43.945;40.039;-30.273;87.402
1553642460;10.254;42.969;36.133;-2.93;125.488
1553642460;-12.695;39.062;41.992;-10.742;87.402
1553642460;-20.996;40.527;39.062;-39.062;39.551
1553642460;1.465;45.41;31.738;-21.484;62.988
1553642460;-2.93;43.457;37.598;-2.441;85.938
1553642460;0.488;40.039;39.551;-4.883;77.148
1553642460;6.836;36.133;37.598;9.277;64.941
1553642460;0.488;34.18;40.527;15.625;72.266
1553642460;20.02;38.574;39.062;15.625;96.68
1553642460;44.922;40.039;36.621;23.438;99.609
1553642460;53.223;36.133;40.527;39.062;82.031
1553642460;45.41;24.902;44.434;29.785;74.707
1553642460;36.621;20.508;42.48;24.414;92.285
1553642460;41.992;16.113;41.992;54.688;111.816
1553642460;55.176;10.742;43.945;69.336;101.074
1553642460;64.941;12.207;44.922;50.781;81.055
1553642460;68.848;8.789;45.898;41.504;86.914
1553642460;72.266;7.324;44.922;65.43;116.699
1553642460;76.66;8.301;42.969;70.312;128.906
1553642460;91.797;14.16;41.016;60.059;114.746
1553642460;100.586;18.066;40.039;64.453;104.492
1553642460;93.262;19.531;40.527;83.496;116.211
1553642460;86.914;20.508;41.504;87.891;118.164
1553642460;83.496;18.066;42.969;77.148;98.145
1553642460;76.66;16.113;45.41;63.477;83.496
1553642460;69.336;15.137;38.086;62.5;95.215
1553642460;67.383;18.066;39.551;74.219;106.445
1553642460;67.383;16.113;43.945;68.848;92.773
1553642460;77.637;17.09;38.086;67.871;73.242
1553642460;80.566;24.414;37.598;75.684;84.961
1553642460;73.73;29.297;37.109;62.988;117.676
1553642460;81.055;30.273;37.598;79.102;122.07
1553642460;81.543;28.32;37.109;90.82;83.984
1553642460;71.777;33.203;38.574;58.105;83.496
1553642460;62.012;37.598;36.621;33.203;119.141
1553642460;58.105;31.25;34.18;27.344;116.699
1553642460;71.777;28.809;37.598;33.203;94.727
1553642460;71.289;34.668;37.109;31.738;92.773
1553642460;55.176;38.086;35.645;41.016;122.07
1553642460;60.547;32.715;34.668;48.828;132.812
1553642460;66.895;27.344;31.738;37.109;99.121
1553642460;60.059;26.367;29.785;21.484;83.984
1553642460;59.082;26.367;29.785;16.602;114.746
1553642460;55.176;30.762;30.762;36.621;136.719
1553642460;45.898;32.227;29.297;54.199;122.559
1553642460;48.34;31.25;24.414;53.711;108.887
1553642460;50.293;34.668;30.273;30.762;122.559
1553642460;50.293;43.945;33.691;30.762;135.742
1553642460;48.828;39.551;31.738;37.598;124.023
1553642460;42.48;28.32;32.715;20.508;105.957
1553642460;44.922;27.832;32.715;19.043;105.469
1553642460;46.387;23.926;32.227;31.25;113.77
1553642460;47.363;22.461;32.715;41.016;112.793
1553642460;43.945;26.855;38.086;32.715;94.727
1553642460;49.316;29.785;40.039;31.25;88.379
1553642460;47.363;31.25;42.969;37.598;104.492
1553642460;42.969;25.391;47.363;45.41;111.816
1553642460;55.664;19.043;42.48;30.273;95.703
1553642460;51.758;22.461;40.527;2.93;87.891
1553642460;46.387;27.832;42.48;20.508;107.91
1553642460;47.363;28.32;41.016;35.156;124.023
1553642460;50.293;24.902;40.527;30.273;115.234
1553642460;54.688;27.832;38.574;29.297;100.098
1553642460;45.41;27.832;40.527;11.719;104.98
1553642460;36.621;25.391;40.527;9.277;128.906
1553642460;39.062;29.297;39.062;44.922;134.277
1553642460;41.992;26.855;41.016;55.664;122.07
1553642460;42.969;23.438;39.062;30.273;131.836
1553642460;37.109;22.949;40.527;32.715;158.691
1553642460;36.621;26.367;46.387;50.293;157.715
1553642460;44.922;31.738;47.363;32.227;133.789
1553642460;41.504;30.273;44.434;17.578;132.812
1553642460;30.273;22.949;43.457;20.508;152.344
1553642460;33.203;20.02;42.48;35.156;163.574
1553642460;44.922;29.297;42.48;42.969;139.648
1553642460;48.828;32.715;43.457;37.109;114.258
1553642460;50.293;31.25;40.039;34.18;132.324
1553642460;47.852;34.18;41.992;39.551;155.273
1553642460;42.969;38.086;41.016;43.945;133.789
1553642460;36.133;39.551;36.133;29.297;91.797
1553642460;41.992;38.086;38.574;16.602;84.961
1553642460;45.898;41.016;31.738;12.207;103.027
1553642460;48.34;44.922;24.902;35.156;115.723
1553642460;44.922;38.086;39.551;34.668;72.754
1553642460;29.297;27.344;49.805;18.066;26.855
1553642460;16.113;20.508;50.293;20.996;29.297
1553642460;12.695;16.113;46.387;29.297;20.02
1553642460;19.531;19.531;46.875;19.531;2.441
1553642460;23.926;19.043;51.758;6.348;7.324
1553642460;21.973;18.066;48.828;23.438;44.922
1553642460;22.949;25.879;44.434;37.598;70.312
1553642460;33.691;31.25;45.41;39.062;66.406
1553642460;35.156;30.273;48.34;34.668;72.266
1553642460;32.227;30.273;41.992;29.297;97.168
1553642460;27.344;32.715;38.574;32.715;124.023
1553642460;20.996;30.762;39.551;38.574;123.047
1553642460;25.879;28.809;41.504;28.809;110.352
1553642460;31.738;30.273;42.48;18.555;117.188
1553642460;34.18;28.809;42.969;32.715;136.719
1553642460;34.668;23.438;43.457;47.363;122.559
1553642460;27.832;24.414;42.969;34.18;79.59
1553642460;22.949;23.926;41.504;18.066;62.012
1553642460;18.555;23.926;38.574;37.109;60.547
1553642460;20.996;26.367;35.645;49.805;47.852
1553642460;34.18;26.855;37.109;31.738;26.855
1553642460;36.621;27.832;42.48;6.348;15.625
1553642460;22.949;26.855;41.016;6.836;48.34
1553642460;15.625;29.785;36.621;28.32;72.754
1553642460;16.113;28.32;37.598;33.691;60.547
1553642460;20.996;22.949;37.598;22.949;69.824
1553642460;34.668;26.367;35.645;9.277;100.586
1553642460;31.25;30.762;30.762;7.324;104.004
1553642460;24.414;33.691;30.273;22.461;73.242
1553642460;32.715;33.691;33.203;29.785;40.527
1553642460;38.086;33.203;31.738;6.836;41.016
1553642460;33.691;35.156;30.273;2.441;59.082
1553642460;21.973;35.645;32.227;20.508;42.48
1553642460;28.32;38.574;33.203;17.09;10.742
1553642460;38.574;39.062;32.715;3.418;9.766
1553642460;33.203;35.156;34.18;7.324;29.785
1553642460;20.996;35.645;37.598;24.902;28.32
1553642460;18.555;38.086;38.574;27.832;12.207
1553642460;27.344;39.062;34.18;17.578;18.555
1553642460;35.156;37.598;34.668;11.719;40.039
1553642460;44.922;33.203;36.621;31.738;54.199
1553642460;36.621;35.156;33.203;37.598;55.176
1553642460;24.414;39.062;31.738;18.066;41.992
1553642460;32.227;37.598;27.344;5.859;42.48
1553642460;40.039;37.598;17.578;20.02;71.777
1553642460;35.156;36.133;20.508;47.852;67.383
1553642460;23.438;29.785;32.715;35.645;30.273
1553642460;27.344;26.367;36.621;5.371;28.32
1553642460;28.32;20.02;40.527;13.184;41.016
1553642460;7.812;12.207;43.945;21.484;45.41
1553642460;3.906;6.836;42.48;-1.465;34.18
1553642460;17.09;0.488;46.387;-5.859;23.438
1553642460;5.859;-3.418;49.805;14.648;25.391
1553642460;-16.113;-4.883;45.41;15.625;23.926
1553642460;-11.719;-0.488;45.41;-0.977;9.766
1553642460;7.812;2.93;47.852;-1.953;6.836
1553642460;21.973;3.418;45.898;1.953;26.855
1553642460;27.832;2.441;46.387;11.719;41.504
1553642460;25.879;5.859;44.434;14.16;41.016
1553642460;15.137;7.812;41.504;3.418;39.062
1553642460;5.859;5.371;42.969;6.348;59.57
1553642460;8.301;8.301;42.48;17.09;80.566
1553642460;12.207;10.254;42.48;21.973;78.613
1553642460;13.184;13.184;41.016;21.484;56.641
1553642460;17.09;16.113;39.551;9.277;40.527
1553642460;20.996;15.625;40.527;11.23;53.223
1553642460;18.555;18.066;40.039;27.344;58.105
1553642460;12.207;23.438;41.504;57.617;37.598
1553642460;22.949;25.879;41.992;42.48;30.762
1553642460;32.715;27.344;40.039;13.672;58.594
1553642460;24.414;27.832;38.086;17.09;69.336
1553642460;27.832;28.809;38.574;11.23;54.199
1553642460;32.715;27.344;37.598;5.371;44.922
1553642460;31.25;21.973;38.574;11.23;62.988
1553642460;31.738;22.461;37.109;20.996;80.566
1553642460;30.762;21.973;31.738;23.926;67.871
1553642460;28.32;22.461;33.203;27.832;55.176
1553642460;28.809;24.902;35.156;13.672;64.453
1553642460;23.926;23.438;37.109;7.324;80.566
1553642460;28.809;24.414;34.668;9.277;80.566
1553642460;27.344;24.902;31.25;0;59.57
1553642460;22.461;26.367;30.273;1.953;54.688
1553642460;17.09;26.855;33.691;23.926;76.172
1553642460;11.719;30.273;38.574;39.062;71.777
1553642460;26.367;28.809;32.715;37.598;43.457
1553642460;35.156;25.391;26.367;11.719;35.645
1553642460;32.227;25.391;31.25;-3.418;49.805
1553642460;36.133;25.879;34.668;7.812;63.965
1553642460;42.48;29.785;37.598;25.391;56.641
1553642460;32.715;26.855;37.109;16.113;32.715
1553642460;22.461;26.367;30.273;2.441;41.504
1553642460;20.02;27.832;30.762;8.789;55.176
1553642460;21.484;25.879;32.715;11.23;50.293
1553642460;27.832;28.809;31.738;8.789;42.48
1553642460;27.832;31.25;33.203;10.254;45.41
1553642460;26.367;29.785;32.715;19.531;59.57
1553642460;33.203;29.297;30.762;21.484;65.918
1553642460;41.504;32.227;31.738;13.184;54.199
1553642460;46.875;32.227;37.109;3.906;53.711
1553642460;35.645;25.879;41.016;5.859;74.707
1553642460;23.438;24.414;39.551;21.484;77.637
1553642460;26.855;24.902;40.527;24.414;59.57
1553642460;25.879;21.484;41.016;9.766;51.758
1553642460;20.508;23.926;36.133;11.719;62.5
1553642460;22.461;24.414;34.668;8.789;67.383
1553642460;26.367;29.297;35.645;9.766;59.082
1553642460;25.391;34.18;37.598;21.973;43.945
1553642460;25.391;29.297;38.574;14.648;51.27
1553642460;27.344;31.738;32.227;12.207;69.824
1553642460;20.02;36.133;32.715;15.625;63.477
1553642460;20.508;35.645;36.133;7.324;47.852
1553642460;35.645;36.621;35.645;4.395;49.316
1553642460;31.25;34.668;38.574;11.719;64.941
1553642460;22.461;37.598;37.598;8.789;65.918
1553642460;34.668;38.086;34.668;-2.441;50.293
1553642460;31.738;36.133;35.645;-5.371;47.363
1553642460;20.02;40.527;36.621;1.953;64.941
1553642460;13.672;40.527;37.109;14.16;65.43
1553642460;12.695;41.504;35.156;14.16;51.27
1553642460;15.625;41.504;35.645;2.441;47.852
1553642460;17.578;39.062;37.109;0.977;62.988
1553642460;19.531;38.574;35.156;11.719;67.383
1553642460;20.996;37.109;37.109;16.602;59.57
1553642460;34.18;38.086;39.551;6.836;56.152
1553642460;31.738;39.551;36.621;3.418;60.547
1553642460;24.902;38.574;35.645;6.836;76.172
1553642460;33.203;41.016;35.645;16.602;78.613
1553642460;38.574;41.992;36.133;16.113;62.5
1553642460;34.668;40.527;37.109;9.766;62.5
1553642460;22.949;41.504;37.109;19.043;82.031
1553642460;23.438;41.504;36.621;20.02;77.637
1553642460;41.992;39.551;35.645;14.648;46.387
1553642460;41.992;38.574;36.133;13.672;31.25
1553642460;29.785;38.574;38.574;12.695;53.223
1553642460;29.785;41.504;36.621;3.418;76.172
1553642460;36.133;43.945;37.598;-3.418;62.012
1553642460;35.645;44.434;36.621;-4.395;45.898
1553642460;17.578;39.551;35.645;-5.371;51.758
1553642460;8.789;38.574;39.062;4.883;62.988
1553642461;26.367;41.992;37.598;9.766;61.523
1553642461;39.062;43.945;35.156;8.789;41.504
1553642461;35.645;41.504;38.086;27.832;48.34
1553642461;23.926;39.062;38.574;44.434;69.336
1553642461;15.625;37.109;36.133;32.715;66.895
1553642461;22.461;32.715;35.645;1.465;53.223
1553642461;24.414;34.668;38.086;-5.859;57.129
1553642461;17.09;35.645;37.109;13.672;77.148
1553642461;12.695;31.738;37.598;13.672;79.59
1553642461;21.973;28.809;40.039;9.277;58.105
1553642461;31.25;30.273;39.062;0.488;40.039
1553642461;31.738;29.297;40.039;1.465;53.223
1553642461;24.902;23.926;36.133;15.625;66.895
1553642461;25.879;23.438;36.133;14.648;60.059
1553642461;25.879;28.32;39.551;10.254;48.828
1553642461;20.02;25.391;38.574;10.742;50.781
1553642461;19.531;21.973;36.621;17.09;59.57
1553642461;21.484;24.902;35.156;32.227;58.105
1553642461;26.855;22.461;34.668;23.926;43.945
1553642461;27.832;23.926;33.203;0;50.781
1553642461;15.625;23.926;32.715;20.508;70.801
1553642461;14.648;19.531;30.273;24.414;64.453
1553642461;32.227;22.461;28.32;-1.465;53.223
1553642461;38.574;21.973;29.785;-4.395;49.316
1553642461;23.926;19.531;32.227;0.977;62.5
1553642461;14.16;23.438;31.25;7.324;77.637
1553642461;16.113;26.367;34.668;24.902;54.688
1553642461;32.715;24.902;39.062;23.926;38.086
1553642461;37.109;26.855;39.062;17.578;56.641
1553642461;23.438;29.785;38.086;27.344;66.406
1553642461;26.855;26.367;40.527;14.648;55.664
1553642461;27.832;26.855;42.48;2.441;43.457
1553642461;22.461;30.762;40.527;-4.883;50.293
1553642461;21.484;28.809;40.039;-12.695;66.895
1553642461;20.996;28.809;40.039;6.836;66.406
1553642461;23.438;28.809;41.504;24.902;48.34
1553642461;28.32;24.902;41.504;4.883;40.527
1553642461;21.973;25.879;38.086;-12.207;57.617
1553642461;16.602;27.344;39.551;-3.906;56.641
1553642461;23.926;26.367;39.551;10.742;41.016
1553642461;24.902;26.855;40.039;16.113;39.551
1553642461;14.16;23.438;42.969;13.672;55.176
1553642461;11.719;20.996;38.574;7.812;58.594
1553642461;25.391;24.414;39.062;13.184;38.086
1553642461;26.855;25.391;41.504;3.906;25.391
1553642461;20.508;26.367;41.016;-11.23;37.598
1553642461;24.414;33.203;41.016;5.371;55.176
1553642461;23.926;36.621;41.992;24.414;46.875
1553642461;15.137;34.18;42.969;17.09;24.902
1553642461;12.695;36.133;42.48;6.348;31.25
1553642461;13.672;31.738;44.434;8.789;74.219
1553642461;21.484;26.367;48.34;18.555;91.309
1553642461;27.344;27.832;48.34;17.09;47.363
1553642461;22.461;28.809;44.922;-7.324;21.484
1553642461;27.832;36.133;41.016;-4.883;46.875
1553642461;24.414;38.086;41.016;-1.465;49.316
1553642461;20.02;37.598;42.969;-1.953;23.926
1553642461;37.109;43.945;40.039;3.906;26.367
1553642461;39.551;44.434;36.133;8.301;48.34
1553642461;23.926;40.039;38.086;26.367;55.664
1553642461;27.344;39.062;37.109;35.156;53.711
1553642461;30.762;38.574;37.109;11.719;38.574
1553642461;28.32;39.062;35.156;-2.93;37.598
1553642461;29.785;40.039;34.18;6.348;59.082
1553642461;29.297;37.598;37.109;15.625;57.129
1553642461;33.203;38.086;37.109;12.207;39.551
1553642461;42.48;41.016;33.691;17.09;45.41
1553642461;40.039;41.992;31.738;11.719;67.871
1553642461;35.156;41.016;31.25;2.441;68.848
1553642461;41.992;40.527;28.809;3.906;52.246
1553642461;47.363;41.504;24.414;3.418;48.34
1553642461;42.48;41.992;25.391;14.16;74.219
1553642461;35.156;42.48;32.715;31.738;89.355
1553642461;33.203;38.086;36.621;43.457;71.289
1553642461;33.691;36.621;37.109;30.762;58.105
1553642461;33.691;38.574;36.621;18.555;73.242
1553642461;43.457;37.598;38.574;32.227;81.055
1553642461;47.363;40.039;38.086;33.203;64.941
1553642461;43.945;44.434;36.133;20.996;51.758
1553642461;39.551;45.41;37.109;17.09;64.941
1553642461;22.949;41.992;36.621;16.113;82.52
1553642461;18.555;42.969;35.645;9.277;73.73
1553642461;20.996;44.434;39.062;6.348;47.363
1553642461;18.066;44.434;39.551;8.301;46.387
1553642461;20.508;44.922;36.621;13.672;65.918
1553642461;26.855;40.039;39.062;20.996;77.637
1553642461;34.18;37.598;40.527;25.391;71.777
1553642461;41.016;41.016;37.109;8.789;54.688
1553642461;38.574;44.434;38.086;11.23;71.289
1553642461;27.832;44.922;37.598;22.461;79.59
1553642461;26.367;47.363;29.785;12.207;53.223
1553642461;27.832;49.805;30.273;-4.395;39.062
1553642461;33.691;49.316;31.25;-9.277;51.27
1553642461;50.781;53.711;24.414;4.395;60.547
1553642461;34.668;53.711;23.926;10.254;46.875
1553642461;1.953;49.316;26.367;-1.953;32.715
1553642461;-7.324;46.387;26.855;-17.09;39.062
1553642461;-13.672;45.41;25.879;-7.812;56.152
1553642461;-15.137;41.016;29.785;-0.488;54.199
1553642461;1.465;37.598;29.785;-4.395;41.504
1553642461;10.254;43.457;28.32;14.16;43.945
1553642461;9.277;48.34;32.227;6.348;65.43
1553642461;14.648;48.34;29.785;-11.719;76.172
1553642461;25.391;45.41;30.273;-3.906;56.641
1553642461;26.367;39.062;35.156;-5.371;44.922
1553642461;19.043;40.527;35.645;-7.324;64.941
1553642461;17.578;41.992;31.738;-3.906;69.336
1553642461;27.344;40.039;30.273;3.418;53.223
1553642461;26.367;41.016;35.156;9.277;47.363
1553642461;18.066;40.039;34.18;4.883;56.641
1553642461;18.555;39.551;33.691;8.789;72.754
1553642461;22.949;41.016;41.504;16.113;72.266
1553642461;31.25;41.016;41.992;12.695;39.551
1553642461;32.227;38.574;39.062;21.484;29.297
1553642461;23.926;39.062;41.504;20.02;55.664
1553642461;25.879;41.016;42.48;18.066;60.547
1553642461;30.762;36.621;42.48;21.973;41.016
1553642461;28.32;30.762;39.551;10.254;39.551
1553642461;26.855;30.762;37.109;5.371;62.988
1553642461;26.367;36.621;37.598;7.324;67.383
1553642461;31.738;38.574;40.527;4.395;49.805
1553642461;26.367;36.133;41.504;1.465;43.945
1553642461;15.625;37.109;42.48;6.348;62.012
1553642461;9.277;34.18;40.527;10.742;67.871
1553642461;11.719;31.738;39.062;7.812;54.688
1553642461;16.113;27.832;39.551;-1.465;37.598
1553642461;14.648;28.32;37.598;-0.488;46.875
1553642461;7.324;30.762;36.133;15.137;63.477
1553642461;18.066;27.344;37.109;30.762;59.57
1553642461;30.762;27.832;34.18;38.574;39.062
1553642461;12.695;30.762;32.715;31.25;34.18
1553642461;4.883;33.691;31.738;-8.789;59.57
1553642461;13.672;32.715;30.762;-28.32;60.059
1553642461;10.742;33.203;28.32;-28.809;36.621
1553642461;10.254;35.645;26.855;-19.043;35.645
1553642461;6.836;34.18;33.203;-6.836;58.594
1553642461;-1.953;28.809;34.18;1.953;71.289
1553642461;10.254;26.855;33.203;7.324;59.082
1553642461;20.02;25.879;38.574;2.93;42.969
1553642461;9.766;25.879;42.969;5.371;54.199
1553642461;2.441;27.344;39.551;16.602;68.359
1553642461;4.883;30.273;37.109;20.02;62.5
1553642461;11.23;29.785;41.992;6.348;56.641
1553642461;15.137;29.785;44.434;3.906;70.801
1553642461;11.719;31.25;39.551;13.184;79.59
1553642461;10.742;27.832;38.086;15.625;67.383
1553642461;18.066;25.879;38.086;4.395;51.27
1553642461;20.996;28.809;42.48;-4.395;55.664
1553642461;13.184;28.32;42.969;7.324;72.266
1553642461;17.09;27.344;37.598;18.555;71.289
1553642461;20.508;30.762;41.016;11.23;52.734
1553642461;24.414;31.738;42.48;-0.488;51.758
1553642461;26.855;34.668;39.062;13.672;68.848
1553642461;16.113;34.668;39.551;24.414;76.66
1553642461;15.625;34.18;39.551;14.16;69.336
1553642461;18.066;32.715;40.527;3.906;58.105
1553642461;12.695;34.18;41.504;5.371;64.453
1553642461;13.672;36.133;37.598;25.879;68.359
1553642461;25.391;37.598;34.668;29.785;64.941
1553642461;47.363;44.434;31.25;20.508;77.637
1553642461;48.34;41.992;36.621;31.25;85.449
1553642461;20.508;33.203;44.434;26.367;70.312
1553642461;6.836;32.227;43.457;6.836;52.246
1553642461;3.906;28.32;42.969;-0.488;38.086
1553642461;6.348;20.996;43.457;4.883;43.457
1553642461;8.789;21.484;45.898;17.578;67.871
1553642461;0;19.531;43.945;9.277;71.777
1553642461;-0.977;20.996;40.527;-1.465;51.758
1553642461;7.812;24.902;43.457;-2.93;40.527
1553642461;6.348;22.949;41.504;4.395;58.594
1553642461;6.836;26.367;38.086;20.02;76.172
1553642461;13.184;28.809;39.062;14.16;66.406
1553642461;16.113;27.344;42.48;-6.348;52.734
1553642461;14.648;30.273;41.992;-11.23;54.688
1553642461;13.184;29.785;43.457;1.465;67.871
1553642461;19.043;30.273;47.852;11.23;70.312
1553642461;23.926;30.273;43.945;9.277;56.152
1553642461;24.902;26.855;41.992;9.766;59.082
1553642461;26.367;29.297;41.992;10.742;76.172
1553642461;21.973;29.297;41.504;5.859;77.148
1553642461;16.602;26.367;42.48;15.625;56.641
1553642461;18.555;23.926;42.969;12.695;48.828
1553642461;15.137;23.438;41.016;5.371;68.848
1553642461;13.184;23.438;37.109;9.277;75.195
1553642461;19.043;20.996;33.691;6.348;58.594
1553642461;22.949;23.438;37.598;4.395;42.969
1553642461;19.043;27.832;40.039;5.371;62.5
1553642461;6.348;29.297;34.668;14.16;76.66
1553642461;8.301;27.344;35.645;21.484;61.523
1553642461;27.832;29.785;36.621;8.301;42.48
1553642461;27.344;32.227;36.133;7.324;51.27
1553642461;14.16;28.32;33.203;27.344;77.148
1553642461;9.766;29.785;32.227;18.066;68.359
1553642461;15.137;28.32;34.18;-4.395;42.48
1553642461;20.508;21.484;36.133;-6.836;44.434
1553642461;18.066;26.367;34.668;-1.465;64.453
1553642461;16.113;30.273;31.738;13.672;60.547
1553642461;26.367;24.414;30.762;17.09;45.41
1553642461;33.203;21.973;29.785;-5.859;42.969
1553642461;19.043;21.484;32.715;-0.977;60.547
1553642461;13.184;23.926;35.156;33.691;72.266
1553642461;18.066;24.414;33.203;38.086;50.293
1553642461;16.602;22.949;31.738;2.441;37.109
1553642461;18.066;23.926;35.645;-6.836;63.477
1553642461;17.578;26.855;40.039;2.93;81.543
1553642461;20.02;27.832;39.062;6.348;69.336
1553642461;31.738;27.832;37.109;5.371;55.176
1553642461;34.18;27.832;40.039;5.859;68.848
1553642461;26.367;27.832;38.574;11.719;84.473
1553642461;23.438;24.902;33.691;21.973;72.754
1553642461;22.461;22.461;33.691;21.484;49.805
1553642461;20.996;22.949;32.227;12.695;56.152
1553642461;19.531;20.508;32.715;18.066;76.172
1553642461;16.602;18.066;30.273;14.648;69.824
1553642461;23.926;18.066;29.297;15.625;56.152
1553642461;24.902;16.602;32.227;15.625;48.828
1553642461;22.949;20.02;29.297;5.859;63.477
1553642461;24.902;20.996;29.297;10.254;78.613
1553642461;28.32;19.531;26.367;15.625;62.012
1553642461;34.668;19.531;26.367;11.719;43.457
1553642461;24.902;20.996;28.32;1.953;55.664
1553642461;16.602;23.438;28.32;8.789;76.172
1553642461;27.344;24.902;30.273;25.391;73.242
1553642461;40.039;24.414;25.391;22.949;59.082
1553642461;37.109;24.902;26.367;13.672;64.453
1553642461;27.344;30.762;33.203;21.484;79.59
1553642461;32.715;32.715;33.691;28.809;75.195
1553642461;31.25;29.785;33.203;21.973;52.734
1553642461;19.043;31.738;36.133;7.324;50.293
1553642461;17.578;34.18;34.18;10.254;73.242
1553642461;14.16;34.18;33.691;15.625;79.59
1553642461;20.508;35.645;35.645;19.531;61.523
1553642461;27.344;37.598;35.156;17.09;49.805
1553642461;23.926;37.598;35.156;13.184;65.43
1553642461;25.391;36.621;35.645;40.527;78.613
1553642461;31.25;35.645;33.691;31.25;64.453
1553642461;26.855;36.133;31.25;2.93;46.387
1553642461;18.066;37.598;34.668;1.953;59.57
1553642461;14.16;36.133;32.715;1.953;73.242
1553642461;13.672;34.668;29.785;2.93;65.918
1553642461;17.09;36.621;34.18;0.977;52.246
1553642461;16.113;37.598;32.715;1.465;56.152
1553642461;10.254;39.062;33.203;15.137;76.172
1553642461;12.695;37.598;36.621;14.16;71.777
1553642461;17.09;33.203;36.621;8.789;48.34
1553642461;18.066;35.156;36.133;5.859;42.48
1553642461;17.09;34.668;38.574;3.418;63.965
1553642461;13.184;33.203;39.062;11.719;62.988
1553642461;19.043;35.156;38.086;20.02;44.922
1553642461;25.391;38.086;42.48;19.043;42.48
1553642461;18.066;39.062;43.945;10.254;63.965
1553642461;22.461;38.086;40.039;13.672;77.637
1553642461;41.504;37.598;39.551;36.133;59.57
1553642461;33.691;35.645;39.551;24.414;47.363
1553642461;21.484;33.203;37.598;-0.977;52.734
1553642461;14.16;29.297;37.598;4.883;63.477
1553642462;5.859;33.203;36.621;3.906;67.871
1553642462;8.301;36.133;38.086;-7.324;61.035
1553642462;9.766;33.691;39.551;-10.742;61.523
1553642462;9.766;38.086;37.598;5.859;73.73
1553642462;5.371;39.062;36.133;25.879;69.824
1553642462;16.602;41.016;30.762;24.414;55.664
1553642462;38.086;45.41;24.414;18.066;65.918
1553642462;33.691;43.945;32.715;20.02;75.195
1553642462;19.043;41.504;43.457;28.32;73.242
1553642462;20.508;34.668;50.781;40.527;63.477
1553642462;24.902;28.32;54.688;31.25;47.363
1553642462;17.09;24.902;52.246;15.137;55.664
1553642462;6.348;14.648;53.711;18.066;67.383
1553642462;8.789;2.441;54.199;31.25;59.082
1553642462;17.09;-7.324;55.176;37.598;40.527
1553642462;7.812;-11.23;56.152;36.133;42.48
1553642462;-6.348;-11.719;54.688;24.902;62.012
1553642462;-1.953;-16.113;57.129;28.809;67.871
1553642462;5.371;-19.043;57.617;39.551;54.688
1553642462;9.277;-15.137;53.223;30.762;42.969
1553642462;-4.395;-8.789;47.852;13.672;52.734
1553642462;-8.789;-3.906;47.363;4.395;59.082
1553642462;9.277;0.977;48.828;10.742;49.316
1553642462;18.555;3.418;46.875;13.184;44.922
1553642462;4.883;4.883;47.852;14.16;62.5
1553642462;-5.859;2.93;49.805;18.555;73.242
1553642462;4.883;3.906;44.922;22.949;54.688
1553642462;15.625;7.812;41.504;20.02;41.504
1553642462;11.719;12.695;41.504;20.508;56.152
1553642462;8.789;15.625;40.039;38.574;72.266
1553642462;18.066;14.16;41.016;34.668;65.918
1553642462;27.344;16.602;41.016;12.695;58.594
1553642462;20.996;18.066;41.016;6.348;67.383
1553642462;14.16;15.625;39.062;14.648;84.473
1553642462;18.555;17.09;35.156;25.391;81.543
1553642462;24.414;20.996;36.133;33.691;77.148
1553642462;28.809;19.043;41.016;22.949;90.82
1553642462;25.879;20.02;41.016;11.719;121.094
1553642462;23.926;20.996;41.016;29.297;125.488
1553642462;30.273;19.043;41.992;40.527;101.074
1553642462;29.785;21.973;39.062;26.367;79.102
1553642462;19.531;22.949;39.062;16.113;67.383
1553642462;19.531;24.414;40.039;13.184;70.312
1553642462;28.32;27.832;38.086;10.742;63.965
1553642462;26.855;27.832;37.598;6.348;55.176
1553642462;17.09;27.832;37.598;6.348;58.105
1553642462;6.348;28.32;38.574;20.02;64.941
1553642462;6.348;31.738;40.527;29.297;65.43
1553642462;16.602;35.156;41.992;13.184;53.223
1553642462;20.02;35.156;40.527;-2.93;56.152
1553642462;12.695;36.133;39.551;-0.977;69.824
1553642462;10.254;39.551;38.086;10.742;64.453
1553642462;17.09;43.457;38.574;9.277;39.062
1553642462;19.043;40.039;41.504;7.812;26.855
1553642462;15.625;39.062;39.551;13.672;40.527
1553642462;16.113;39.062;40.527;15.625;48.34
1553642462;15.137;35.645;42.48;18.066;36.621
1553642462;18.066;39.551;40.039;4.395;27.344
1553642462;23.926;41.016;37.598;6.348;34.668
1553642462;17.578;36.133;35.156;24.902;41.992
1553642462;17.09;36.621;33.203;36.621;36.133
1553642462;31.25;38.574;38.574;30.762;25.391
1553642462;26.855;34.18;40.527;8.789;30.762
1553642462;17.09;33.203;34.18;2.93;43.945
1553642462;17.09;34.668;35.645;3.418;38.574
1553642462;20.02;33.203;34.18;-4.395;33.691
1553642462;28.32;34.668;35.156;-9.277;47.363
1553642462;29.785;35.645;37.109;0.977;58.594
1553642462;35.156;31.738;37.598;18.555;60.059
1553642462;42.48;29.297;37.598;15.625;44.922
1553642462;33.691;30.762;34.668;3.418;38.574
1553642462;20.02;32.227;32.227;9.766;54.688
1553642462;54.199;31.25;34.18;59.57;54.199
1553642462;86.426;29.297;38.086;86.426;63.477
1553642462;49.316;34.668;40.527;25.391;89.844
1553642462;0.488;39.062;40.039;-31.25;67.871
1553642462;-35.645;36.133;35.156;-51.27;27.832
1553642462;-27.832;38.086;29.297;-55.176;23.926
1553642462;-22.461;42.48;31.738;-60.547;15.625
1553642462;-48.34;47.363;26.855;-81.055;3.906
1553642462;-57.129;58.594;19.043;-81.055;11.719
1553642462;-62.5;66.895;16.602;-77.148;4.395
1553642462;-63.477;76.172;14.648;-98.145;-14.16
1553642462;-64.941;82.031;10.742;-126.953;-27.832
1553642462;-78.125;82.031;0.977;-130.859;-19.043
1553642462;-80.566;87.402;-3.418;-123.535;-21.973
1553642462;-81.055;91.309;-2.441;-122.559;-62.988
1553642462;-65.918;95.703;-6.348;-122.07;-75.684
1553642462;-62.012;98.145;-5.371;-122.07;-72.754
1553642462;-69.336;96.191;-1.465;-104.492;-69.824
1553642462;-52.734;97.656;-2.441;-93.75;-70.312
1553642462;-47.852;89.844;1.465;-102.051;-86.426
1553642462;-53.711;83.984;4.883;-97.656;-69.824
1553642462;-48.828;83.496;3.418;-71.777;-45.41
1553642462;-37.109;81.543;5.371;-48.34;-41.016
1553642462;-24.414;82.031;8.789;-65.43;-45.41
1553642462;-2.93;79.102;9.277;-61.035;-33.203
1553642462;12.695;74.707;10.742;-31.738;-0.488
1553642462;3.418;71.289;12.695;-37.598;0
1553642462;-14.648;68.848;16.113;-56.152;-27.344
1553642462;-23.438;67.871;16.602;-58.105;-33.203
1553642462;-21.484;63.965;17.578;-34.18;-8.789
1553642462;-20.02;57.129;22.949;-26.855;12.207
1553642462;-11.23;55.664;24.902;-29.785;5.371
1553642462;-1.465;54.688;25.879;-27.344;2.93
1553642462;1.465;52.246;28.32;-18.555;25.391
1553642462;3.418;53.223;30.273;-5.371;42.48
1553642462;11.719;54.688;34.18;2.93;37.598
1553642462;16.602;51.27;35.645;2.441;22.461
1553642462;10.742;47.852;32.715;-5.371;29.785
1553642462;12.207;46.875;31.738;3.418;53.711
1553642462;22.461;50.293;28.809;15.625;44.922
1553642462;28.32;47.852;29.785;9.766;19.531
1553642462;22.461;45.41;30.273;12.207;13.672
1553642462;17.09;50.293;28.32;17.578;31.25
1553642462;22.949;48.828;32.715;20.508;48.34
1553642462;21.973;46.875;36.621;24.902;42.969
1553642462;19.531;48.34;36.133;10.742;32.715
1553642462;12.207;44.922;35.156;-2.441;44.434
1553642462;11.23;39.551;33.691;0;50.781
1553642462;25.391;38.086;35.645;7.324;41.016
1553642462;35.645;38.574;37.109;-6.348;36.621
1553642462;39.551;40.039;34.18;-4.883;49.805
1553642462;24.414;39.551;35.645;22.949;58.594
1553642462;1.953;37.109;35.156;20.02;38.086
1553642462;8.301;37.598;33.203;2.93;19.043
1553642462;20.02;35.645;32.715;-2.441;20.508
1553642462;20.02;32.227;32.715;6.348;22.949
1553642462;19.531;32.715;33.691;9.277;13.184
1553642462;19.043;36.133;31.25;2.441;-1.953
1553642462;16.113;35.156;30.273;5.371;-19.531
1553642462;9.766;34.668;30.762;11.719;-5.371
1553642462;4.883;33.203;30.762;5.859;14.648
1553642462;9.277;27.832;29.785;0.977;-2.441
1553642462;16.602;27.832;33.203;-5.371;-19.531
1553642462;12.695;27.344;37.109;-8.301;-11.23
1553642462;4.883;27.832;39.062;3.418;-11.23
1553642462;14.16;24.414;37.598;7.812;-19.043
1553642462;27.832;23.926;34.668;2.441;-24.902
1553642462;14.16;24.414;36.133;7.812;-15.137
1553642462;-0.977;22.461;33.203;17.09;5.371
1553642462;11.719;24.414;31.25;9.766;19.043
1553642462;21.973;27.344;32.715;8.789;14.648
1553642462;24.414;27.344;32.227;7.324;9.277
1553642462;16.602;25.391;37.598;0.488;22.949
1553642462;8.789;25.879;38.574;2.93;22.949
1553642462;15.137;26.855;36.133;1.465;9.277
1553642462;11.719;26.367;39.062;1.953;8.789
1553642462;5.371;24.414;39.551;9.277;40.527
1553642462;14.648;21.484;38.574;10.254;48.828
1553642462;19.531;22.949;36.621;10.254;7.812
1553642462;18.066;24.414;37.109;8.301;-15.625
1553642462;18.555;23.926;38.086;-2.93;12.695
1553642462;18.555;22.461;34.18;-2.441;23.926
1553642462;23.438;23.438;32.227;7.812;-4.395
1553642462;23.926;24.902;35.645;2.93;-17.578
1553642462;26.855;25.391;37.109;-5.859;2.93
1553642462;31.25;29.297;35.156;-0.977;21.973
1553642462;34.18;30.273;33.203;4.395;20.508
1553642462;36.133;29.785;29.785;6.836;-7.324
1553642462;24.902;27.344;31.25;4.395;-16.602
1553642462;12.695;25.879;32.715;0.977;3.418
1553642462;19.531;26.855;30.273;4.883;7.812
1553642462;42.969;26.855;28.809;-0.977;-23.926
1553642462;41.992;24.414;31.25;-16.113;-40.039
1553642462;14.648;25.879;31.738;-9.766;-18.555
1553642462;8.301;27.344;33.691;5.859;-4.883
1553642462;17.578;28.32;31.25;-1.953;-21.484
1553642462;33.691;29.785;29.297;-9.277;-27.832
1553642462;44.922;27.832;32.227;12.695;-19.531
1553642462;51.758;27.832;28.32;35.645;-16.113
1553642462;48.828;23.926;28.32;26.367;-27.832
1553642462;25.391;22.461;29.785;-7.324;-30.273
1553642462;10.742;27.344;27.832;-29.297;-3.906
1553642462;1.465;29.785;28.32;-19.531;22.949
1553642462;6.348;28.32;28.809;-6.348;35.156
1553642462;21.484;26.855;30.762;-19.043;30.273
1553642462;27.832;27.344;30.273;-24.414;33.691
1553642462;26.367;28.809;31.738;-9.277;48.828
1553642462;21.484;24.902;35.156;-1.465;52.734
1553642462;23.438;21.973;37.598;0.977;44.922
1553642462;26.855;22.949;40.039;10.742;42.48
1553642462;9.277;20.02;40.527;9.766;60.547
1553642462;-9.277;17.09;40.527;0.488;68.848
1553642462;-2.93;23.438;43.945;-12.207;56.641
1553642462;11.719;30.762;46.875;-19.531;53.223
1553642462;17.09;32.715;47.852;-17.09;68.359
1553642462;17.09;30.762;45.898;-8.301;84.961
1553642462;21.484;31.738;41.016;1.465;84.473
1553642462;26.855;34.668;43.945;0.488;73.242
1553642462;27.832;37.109;47.852;-6.348;75.684
1553642462;26.367;39.551;42.48;-5.371;94.238
1553642462;28.32;37.109;40.039;3.906;94.238
1553642462;26.367;31.738;39.551;5.859;66.406
1553642462;28.32;29.297;38.574;3.418;64.941
1553642462;21.484;27.344;38.574;9.766;87.891
1553642462;20.508;29.785;38.086;31.25;93.75
1553642462;59.57;30.762;37.598;60.059;79.59
1553642462;70.312;29.297;36.621;45.41;75.195
1553642462;28.809;26.367;35.645;0;99.121
1553642462;0.488;29.785;33.691;-14.648;107.91
1553642462;-8.789;31.25;34.18;-14.16;89.844
1553642462;-6.836;35.156;35.645;-13.672;74.707
1553642462;2.93;38.574;36.621;-11.23;83.984
1553642462;2.441;37.598;32.715;-4.883;103.516
1553642462;5.859;41.504;29.785;1.465;95.703
1553642462;17.578;45.41;32.227;4.395;67.383
1553642462;23.926;48.34;31.25;6.836;60.547
1553642462;18.066;48.34;32.227;8.789;84.961
1553642462;14.648;42.969;31.25;13.184;100.098
1553642462;17.578;37.598;33.203;9.277;80.078
1553642462;24.414;34.668;30.762;-4.395;72.754
1553642462;24.902;33.203;26.855;-9.277;94.238
1553642462;18.066;31.25;32.715;3.906;104.98
1553642462;20.508;34.668;32.715;10.254;98.633
1553642462;29.785;36.621;31.738;2.441;87.402
1553642462;32.227;37.109;38.086;4.395;102.539
1553642462;26.367;38.086;36.621;16.602;116.699
1553642462;27.344;36.621;38.574;15.625;98.633
1553642462;29.297;34.668;41.504;6.836;72.754
1553642462;23.926;33.691;40.039;8.301;77.148
1553642462;17.578;31.738;41.992;28.32;92.285
1553642462;24.414;34.668;41.992;42.48;87.402
1553642462;31.25;37.109;39.062;36.621;68.848
1553642462;30.762;32.227;40.039;25.391;69.336
1553642462;24.902;26.367;41.992;35.645;93.75
1553642462;14.648;26.855;40.039;34.668;93.75
1553642462;10.254;26.855;42.48;5.371;70.312
1553642462;12.207;24.414;42.969;-10.742;59.57
1553642462;8.789;25.879;40.039;-8.789;73.73
1553642462;-1.465;25.391;38.574;-0.488;84.961
1553642462;5.371;26.367;37.109;7.324;66.406
1553642462;14.648;23.438;41.992;0.488;39.062
1553642462;19.043;23.926;43.945;-1.465;40.039
1553642462;18.066;26.855;41.016;17.09;59.57
1553642462;12.695;24.902;41.504;27.344;54.688
1553642462;19.043;28.32;41.504;21.484;33.691
1553642462;30.762;32.715;41.016;10.254;39.551
1553642462;31.25;30.762;44.434;15.137;61.523
1553642462;25.879;30.273;41.016;21.973;62.5
1553642462;22.461;31.25;39.062;4.395;34.668
1553642462;19.043;30.273;41.016;-2.441;34.18
1553642462;8.301;30.273;40.527;11.23;66.895
1553642462;6.836;29.297;40.527;20.02;73.73
1553642462;16.113;27.344;39.551;27.344;49.805
1553642462;20.02;26.855;39.551;14.16;44.922
1553642462;20.02;25.879;39.551;8.301;78.613
1553642462;10.254;27.344;41.992;23.926;103.516
1553642462;9.277;26.367;42.969;22.949;86.914
1553642462;20.508;24.902;42.48;4.883;71.289
1553642462;22.949;22.949;44.434;4.883;85.938
1553642462;20.508;21.484;41.504;15.137;98.633
1553642462;14.648;21.973;40.039;25.391;92.285
1553642462;16.602;23.926;44.434;31.25;66.406
1553642462;22.949;26.367;49.805;21.484;71.289
1553642462;22.461;21.973;47.852;20.508;97.656
1553642463;28.809;20.996;42.969;21.484;88.379
1553642463;32.715;21.973;43.945;11.23;63.477
1553642463;45.898;20.02;45.898;-0.977;59.082
1553642463;46.875;21.484;42.48;9.766;82.52
1553642463;21.484;20.996;42.48;30.273;98.145
1553642463;17.09;22.461;41.992;25.879;78.613
1553642463;10.742;22.949;41.504;24.414;58.594
1553642463;8.789;17.578;44.922;22.461;74.219
1553642463;16.113;17.578;41.992;11.23;92.285
1553642463;18.555;19.043;39.551;14.16;80.078
