timestamps;TP9;AF7;AF8;TP10;Right AUX
1553640582;22.461;34.18;31.25;41.504;31.25
1553640582;31.25;32.715;31.738;9.766;25.879
1553640582;41.504;31.25;31.738;3.418;29.297
1553640582;30.762;30.273;33.203;23.926;35.645
1553640582;15.137;31.25;31.738;31.25;37.109
1553640582;10.742;28.809;32.227;39.551;32.715
1553640582;20.996;27.344;36.133;58.105;29.297
1553640582;24.902;27.832;36.621;48.828;32.227
1553640582;36.621;28.32;36.133;25.391;27.344
1553640582;45.898;28.809;35.645;24.414;23.438
1553640582;35.156;30.273;32.715;34.668;19.043
1553640582;22.461;30.762;30.762;57.129;28.809
1553640582;29.785;26.855;31.25;64.453;36.621
1553640582;23.926;25.391;33.203;32.227;35.645
1553640582;19.531;26.855;34.18;17.578;34.18
1553640582;36.621;27.832;30.762;18.555;41.992
1553640582;22.461;27.344;27.344;18.066;43.457
1553640582;37.109;30.762;23.926;27.832;42.969
1553640582;84.961;34.18;18.555;50.781;61.523
1553640582;74.707;31.25;25.879;67.871;66.406
1553640582;34.18;22.461;41.992;42.48;32.715
1553640582;12.207;12.695;47.363;34.668;13.184
1553640582;-2.93;5.371;43.945;33.203;10.742
1553640582;-15.625;5.859;38.086;24.414;4.883
1553640582;-4.883;13.672;35.156;21.484;11.719
1553640582;-3.418;17.09;31.738;12.695;3.418
1553640582;-24.414;16.602;31.738;20.508;-5.371
1553640582;-10.742;19.043;32.227;16.602;4.395
1553640582;19.531;21.973;28.809;6.836;20.996
1553640583;28.32;19.531;28.809;22.461;27.344
1553640583;30.762;18.066;27.832;35.156;18.066
1553640583;17.578;17.578;23.926;31.738;11.719
1553640583;1.953;14.16;25.391;10.742;18.066
1553640583;6.836;14.16;33.203;12.695;30.762
1553640583;12.207;15.625;35.645;26.855;34.668
1553640583;20.508;14.648;31.25;20.996;29.297
1553640583;23.438;15.137;29.297;21.973;23.926
1553640583;14.648;18.555;32.227;61.523;34.18
1553640583;13.184;21.484;32.715;55.664;38.086
1553640583;13.672;21.973;33.203;15.137;26.367
1553640583;10.742;21.484;32.227;20.508;20.508
1553640583;11.23;19.531;29.297;13.672;23.926
1553640583;6.348;15.625;29.297;6.836;26.855
1553640583;9.277;11.719;29.785;7.812;19.531
1553640583;28.809;18.555;26.855;11.23;11.719
1553640583;32.227;27.832;27.344;17.578;24.902
1553640583;25.879;25.879;30.273;30.762;32.715
1553640583;29.785;21.973;32.227;41.992;30.273
1553640583;27.344;21.973;32.715;47.363;28.32
1553640583;37.109;24.902;31.25;41.504;29.297
1553640583;33.203;22.461;29.785;29.785;33.203
1553640583;15.137;20.996;30.762;36.133;35.156
1553640583;36.133;22.461;29.297;21.484;33.691
1553640583;56.152;15.625;28.809;7.812;35.645
1553640583;40.527;14.16;29.785;19.531;35.645
1553640583;22.949;15.625;30.762;22.949;30.273
1553640583;14.648;14.648;31.738;27.832;24.902
1553640583;6.836;11.23;32.715;27.832;24.414
1553640583;10.254;8.789;30.273;31.738;35.156
1553640583;15.625;17.578;27.344;42.48;39.062
1553640583;22.461;22.461;30.762;32.227;29.785
1553640583;27.344;22.461;35.156;33.203;20.02
1553640583;31.25;23.438;37.109;37.598;24.902
1553640583;29.785;22.949;35.645;35.156;30.273
1553640583;32.227;24.414;33.691;40.039;28.32
1553640583;16.602;22.949;32.227;41.992;22.949
1553640583;17.09;18.066;30.762;46.387;29.297
1553640583;37.109;18.555;30.273;48.34;40.039
1553640583;30.273;20.02;32.227;45.41;30.762
1553640583;29.785;21.484;32.227;38.574;24.414
1553640583;37.598;18.066;31.25;37.109;31.25
1553640583;30.762;14.648;33.203;52.734;43.945
1553640583;38.574;21.973;37.109;62.012;49.805
1553640583;54.199;22.949;40.039;60.059;50.293
1553640583;38.574;23.926;39.551;35.645;31.25
1553640583;27.832;29.297;33.691;19.043;26.367
1553640583;27.344;29.785;30.762;22.461;29.785
1553640583;34.18;25.391;29.785;27.344;22.461
1553640583;26.855;20.02;26.367;35.645;21.973
1553640583;23.438;23.926;24.902;32.227;20.508
1553640583;33.203;31.25;25.879;37.109;26.367
1553640583;27.832;27.832;24.414;47.363;26.855
1553640583;25.879;23.438;23.438;53.711;19.043
1553640583;32.715;23.926;29.297;52.734;25.879
1553640583;25.879;19.531;34.18;39.551;37.598
1553640583;25.879;20.996;32.227;45.898;31.738
1553640583;31.738;17.09;30.273;41.016;24.414
1553640583;26.367;8.789;31.25;29.297;30.762
1553640583;30.273;10.742;28.809;30.273;40.527
1553640583;37.598;16.602;23.926;27.832;39.062
1553640583;56.641;18.066;23.926;18.066;32.227
1553640583;70.801;18.066;23.926;16.602;24.902
1553640583;43.457;16.602;23.438;25.391;32.715
1553640583;21.484;17.578;25.391;24.414;41.504
1553640583;11.23;15.137;27.832;38.086;39.062
1553640583;11.719;4.395;26.367;46.875;33.691
1553640583;12.207;-0.977;25.879;44.922;38.574
1553640583;1.465;0.488;27.832;46.387;47.363
1553640583;16.602;4.395;26.367;40.039;41.504
1553640583;21.973;6.836;27.832;46.387;33.203
1553640583;24.902;7.324;29.785;63.965;34.668
1553640583;38.574;11.23;28.32;61.035;40.527
1553640583;41.992;17.09;33.691;41.992;39.062
1553640583;41.504;17.578;36.621;52.246;32.715
1553640583;31.25;16.602;29.785;43.945;34.18
1553640583;24.902;13.184;26.367;27.344;41.016
1553640583;38.086;9.277;29.297;47.852;38.574
1553640583;51.758;9.766;31.738;55.664;33.691
1553640583;41.016;12.695;33.203;67.383;36.133
1553640583;39.062;14.16;35.645;79.59;51.27
1553640583;58.594;18.066;35.645;49.805;58.594
1553640583;58.105;16.113;32.715;16.113;56.152
1553640583;25.879;10.254;32.715;13.672;47.852
1553640583;7.324;7.812;31.25;5.859;44.434
1553640583;26.367;5.859;29.297;0.488;47.363
1553640583;30.762;6.836;29.785;17.578;40.527
1553640583;20.508;7.324;32.227;25.391;33.203
1553640583;24.414;-0.977;31.25;21.973;28.32
1553640583;21.484;-2.441;32.227;30.762;29.785
1553640583;20.508;2.93;35.156;35.156;32.715
1553640583;27.344;3.418;31.738;29.297;22.949
1553640583;25.879;3.906;32.227;38.574;18.555
1553640583;35.156;7.812;34.18;38.574;35.645
1553640583;45.898;10.742;35.156;39.551;36.621
1553640583;38.574;9.277;32.715;45.41;28.809
1553640583;32.715;5.859;31.738;34.18;30.762
1553640583;33.203;1.465;34.668;34.668;24.902
1553640583;34.668;1.465;35.645;41.504;23.926
1553640583;34.18;3.418;34.668;41.992;23.926
1553640583;30.273;2.93;35.156;54.199;13.184
1553640583;35.156;7.324;35.156;62.012;11.719
1553640583;30.762;6.348;31.738;45.898;18.555
1553640583;29.297;-0.977;32.227;37.109;23.438
1553640583;35.645;4.883;36.133;31.25;28.809
1553640583;28.809;12.207;31.25;17.09;33.691
1553640583;37.598;15.137;25.879;5.371;43.457
1553640583;30.273;15.625;27.344;6.348;37.598
1553640583;29.785;15.625;29.297;22.949;28.809
1553640583;30.762;11.23;31.738;23.926;27.832
1553640583;31.25;12.207;31.25;26.367;32.227
1553640583;42.969;17.09;29.785;35.645;34.668
1553640583;29.785;16.113;29.297;35.645;25.879
1553640583;22.949;18.555;25.391;32.715;26.367
1553640583;20.02;21.484;27.344;34.668;29.297
1553640583;15.137;20.508;31.25;35.156;29.785
1553640583;11.23;24.414;29.785;30.762;31.25
1553640583;8.789;27.832;33.203;32.227;31.25
1553640583;12.695;28.32;37.109;36.133;38.574
1553640583;26.367;30.273;30.762;44.434;41.504
1553640583;29.785;25.879;29.785;56.641;28.32
1553640583;20.02;22.461;31.738;56.641;23.438
1553640583;35.645;21.973;28.32;53.223;23.926
1553640583;45.898;22.461;27.832;40.039;35.645
1553640583;27.344;24.902;29.297;29.785;41.016
1553640583;23.438;25.391;30.273;19.531;34.668
1553640583;25.391;29.785;30.762;6.836;31.25
1553640583;29.297;38.086;27.344;-4.883;37.109
1553640583;26.367;41.016;27.344;8.301;42.48
1553640583;26.367;38.574;29.297;26.367;41.992
1553640583;34.18;39.551;26.855;32.715;34.18
1553640583;40.039;46.387;29.297;42.48;35.156
1553640583;46.387;48.34;35.156;42.48;38.574
1553640583;30.762;67.383;35.156;33.203;35.645
1553640583;25.879;109.863;31.25;29.297;36.133
1553640583;34.18;128.906;30.762;31.738;34.668
1553640583;25.391;131.836;34.668;39.062;35.156
1553640583;17.09;134.277;37.109;37.109;33.203
1553640583;2.93;132.812;33.203;34.668;27.344
1553640583;1.953;129.883;26.855;29.297;27.832
1553640583;10.742;127.441;29.297;39.062;35.645
1553640583;6.836;123.047;32.227;54.688;40.039
1553640583;10.254;116.211;30.273;42.969;38.574
1553640583;14.16;113.281;24.902;35.156;32.715
1553640583;22.949;111.816;25.391;29.785;38.574
1553640583;24.414;106.445;28.32;23.438;41.504
1553640583;26.855;103.027;24.414;26.367;36.621
1553640583;20.508;97.656;23.438;28.32;31.25
1553640583;17.578;91.309;23.926;28.32;32.715
1553640583;28.32;88.867;24.902;39.551;43.457
1553640583;13.184;90.332;27.832;44.434;41.016
1553640583;18.555;90.332;26.367;38.086;32.715
1553640583;30.273;84.961;23.438;42.48;31.738
1553640583;32.227;83.496;23.926;41.992;39.062
1553640583;44.434;83.008;24.902;36.133;44.434
1553640583;50.781;78.613;24.902;47.852;53.223
1553640583;25.879;72.754;27.832;46.875;43.457
1553640583;-1.465;72.266;30.762;28.809;34.18
1553640583;6.836;74.219;26.855;30.273;37.109
1553640583;12.695;74.219;23.438;38.574;34.668
1553640583;32.715;74.219;24.414;43.457;40.527
1553640583;50.293;73.73;25.391;54.199;61.035
1553640583;33.691;72.266;23.926;59.082;69.824
1553640583;19.531;68.359;26.855;44.922;49.805
1553640583;32.715;63.477;29.297;39.551;38.574
1553640583;50.781;59.57;25.879;62.5;44.922
1553640583;30.273;56.641;27.832;61.523;50.293
1553640583;20.996;59.57;27.832;55.176;48.828
1553640583;22.461;61.523;26.367;67.383;39.062
1553640583;13.672;58.594;26.367;57.129;33.203
1553640583;21.484;54.688;26.367;45.898;41.504
1553640583;30.762;54.199;22.949;33.691;42.969
1553640583;30.273;57.617;17.578;27.832;40.527
1553640583;23.438;58.105;23.926;28.32;38.574
1553640583;20.02;57.617;27.344;27.832;40.039
1553640583;28.809;53.711;22.461;29.297;41.504
1553640583;24.902;49.805;20.508;27.832;41.992
1553640583;22.949;48.828;24.902;38.086;38.574
1553640583;31.738;46.387;25.391;41.992;35.645
1553640583;40.527;45.41;25.391;37.109;38.086
1553640583;35.156;42.969;30.273;47.363;36.621
1553640583;20.996;40.039;32.715;48.34;33.203
1553640583;54.199;40.527;33.691;37.109;44.922
1553640583;61.035;41.016;33.691;49.805;48.828
1553640583;32.715;41.016;33.203;72.266;28.32
1553640583;38.086;40.039;32.227;76.66;22.461
1553640583;34.668;37.598;33.691;51.27;23.926
1553640583;30.273;41.504;31.738;39.062;33.691
1553640583;18.066;42.48;28.809;47.852;36.133
1553640583;8.301;41.016;26.367;24.414;31.738
1553640583;7.324;41.504;24.414;-8.789;23.438
1553640583;-9.277;39.551;26.855;1.465;25.879
1553640583;-0.977;36.621;29.785;12.695;29.297
1553640583;29.785;33.203;32.715;10.254;20.508
1553640583;31.738;33.691;29.785;12.207;17.09
1553640583;17.09;34.668;27.344;15.625;26.855
1553640583;9.766;28.809;30.273;21.484;33.203
1553640583;12.207;24.414;32.715;34.668;27.344
1553640583;7.324;25.879;34.668;51.27;21.973
1553640583;16.113;30.273;33.691;29.297;24.902
1553640583;35.645;34.18;31.738;17.578;32.715
1553640583;31.738;35.645;30.273;30.273;36.133
1553640583;13.672;32.227;31.738;34.18;35.645
1553640583;22.461;30.273;32.227;44.434;30.762
1553640583;37.109;34.18;32.227;43.457;29.297
1553640583;30.273;34.18;35.156;38.574;34.668
1553640583;31.25;33.691;34.668;46.387;31.738
1553640583;22.949;28.809;35.156;55.176;21.973
1553640583;23.926;25.879;34.18;35.156;29.297
1553640583;45.41;28.809;34.18;17.578;34.18
1553640583;35.645;28.809;36.133;26.855;26.367
1553640583;22.461;28.809;36.133;26.855;21.484
1553640583;33.203;28.32;34.668;34.668;26.855
1553640583;20.996;27.832;32.715;41.016;31.738
1553640583;4.883;27.832;30.762;35.156;32.227
1553640583;10.742;24.902;30.273;38.086;25.391
1553640583;8.301;21.973;32.715;30.762;20.508
1553640583;6.348;20.02;33.691;18.066;30.273
1553640583;17.578;22.949;33.691;23.438;30.273
1553640583;19.043;27.344;33.691;22.461;17.578
1553640583;15.625;28.32;32.715;30.762;14.16
1553640583;23.438;26.367;28.32;31.738;25.879
1553640583;41.016;26.367;28.809;21.973;33.203
1553640583;38.086;28.32;30.762;30.273;36.133
1553640583;19.531;26.855;32.715;33.691;37.109
1553640583;14.16;26.367;33.691;29.785;39.062
1553640583;24.902;29.785;30.762;32.715;39.062
1553640583;34.18;31.25;32.715;38.086;36.133
1553640583;26.367;26.855;35.156;39.062;31.25
1553640583;18.066;22.461;36.133;39.062;31.738
1553640583;20.02;20.508;32.227;40.527;38.086
1553640583;32.715;21.484;30.273;39.551;32.227
1553640583;44.922;24.902;32.227;31.25;24.414
1553640583;31.25;25.879;30.273;15.137;21.484
1553640583;10.742;24.414;29.785;11.719;28.32
1553640583;11.719;22.461;31.738;25.879;32.715
1553640583;26.367;20.02;30.762;30.762;30.762
1553640583;19.043;20.02;29.297;34.668;26.367
1553640583;3.906;20.996;30.762;39.062;30.762
1553640583;1.953;20.996;31.25;38.574;35.645
1553640583;6.836;21.973;29.297;30.762;28.809
1553640583;21.484;25.391;31.738;27.832;25.391
1553640583;19.043;28.809;33.203;49.316;28.809
1553640583;16.113;24.414;33.691;51.758;31.738
1553640583;31.738;21.484;36.621;28.32;28.809
1553640583;32.227;27.832;36.621;35.156;20.996
1553640583;12.695;34.668;32.715;55.664;21.484
1553640583;5.859;29.785;29.297;41.992;30.273
1553640583;27.344;23.926;33.203;35.156;32.227
1553640583;40.039;26.855;37.598;34.668;22.949
1553640583;13.184;28.809;39.062;42.48;17.09
1553640583;-13.184;19.531;38.086;42.48;28.809
1553640583;-1.465;17.09;34.18;23.438;29.297
1553640583;11.23;21.484;33.691;13.184;19.043
1553640583;0;18.066;37.109;12.207;16.113
1553640583;-0.977;20.508;34.18;20.996;23.926
1553640584;5.859;23.438;32.227;30.762;24.902
1553640584;10.742;25.391;34.668;36.621;18.066
1553640584;15.137;23.926;32.227;19.043;16.113
1553640584;18.555;23.926;30.762;14.16;24.414
1553640584;20.508;26.855;34.18;35.645;34.18
1553640584;18.555;26.367;37.109;30.762;31.738
1553640584;32.715;29.297;34.668;21.484;32.227
1553640584;51.27;23.926;36.133;24.902;36.621
1553640584;51.27;11.719;36.621;37.598;63.965
1553640584;41.016;20.996;33.691;54.199;81.543
1553640584;27.832;21.484;39.551;44.922;49.805
1553640584;17.09;11.719;40.527;41.016;25.391
1553640584;4.395;8.789;40.039;46.875;21.484
1553640584;4.395;10.254;37.598;33.691;16.113
1553640584;18.066;27.344;30.273;27.832;14.16
1553640584;14.16;20.508;33.691;16.602;10.254
1553640584;13.184;6.348;38.574;3.906;23.926
1553640584;26.855;21.484;35.645;17.578;30.273
1553640584;20.02;32.715;36.133;40.527;23.438
1553640584;3.906;19.531;38.574;29.785;27.344
1553640584;7.324;-20.996;41.016;3.418;31.738
1553640584;28.32;-36.133;47.363;28.32;37.598
1553640584;40.039;-3.906;53.711;64.453;42.969
1553640584;30.273;17.09;36.621;36.621;31.25
1553640584;11.719;47.852;20.02;10.742;18.066
1553640584;21.484;38.574;23.438;29.297;33.203
1553640584;45.41;2.93;32.715;39.551;47.852
1553640584;73.73;34.668;69.824;62.012;65.43
1553640584;43.457;50.293;73.242;48.34;53.223
1553640584;4.883;55.176;38.086;6.348;24.414
1553640584;35.156;36.133;28.809;17.578;20.996
1553640584;19.531;26.855;25.879;28.32;9.277
1553640584;-5.859;31.25;23.438;13.672;2.93
1553640584;12.207;40.527;28.809;10.742;16.602
1553640584;17.578;37.598;34.18;30.273;36.133
1553640584;5.859;33.691;29.785;25.391;39.062
1553640584;23.926;-12.207;33.691;29.785;43.457
1553640584;85.449;-124.512;68.848;66.895;84.473
1553640584;145.996;-53.711;100.098;123.047;127.441
1553640584;115.723;119.629;67.383;118.164;123.535
1553640584;77.637;56.152;39.062;72.266;94.238
1553640584;124.023;-29.785;78.125;128.418;85.938
1553640584;54.688;61.035;42.48;98.145;31.738
1553640584;-46.875;75.195;-13.184;-22.949;-16.602
1553640584;-78.125;119.629;-16.602;-46.875;-22.461
1553640584;-20.508;56.641;19.531;-0.488;19.531
1553640584;74.219;23.438;82.031;55.176;89.844
1553640584;26.367;142.09;57.617;25.879;47.852
1553640584;-45.898;191.895;-6.836;-41.504;-37.598
1553640584;-62.5;244.629;-18.555;-51.27;-48.828
1553640584;-63.477;166.016;-12.695;-35.645;-33.203
1553640584;-15.625;95.215;3.906;-10.254;-1.465
1553640584;-3.418;226.074;5.371;10.742;3.906
1553640584;-24.902;310.059;-4.395;20.02;-10.742
1553640584;-31.25;287.598;-0.488;16.602;-7.812
1553640584;-28.32;302.734;3.906;1.953;1.465
1553640584;-4.883;349.121;5.371;9.277;3.418
1553640584;2.441;367.676;3.418;13.672;2.441
1553640584;5.371;388.672;0.488;9.277;3.906
1553640584;16.113;413.086;3.418;23.438;11.719
1553640584;7.812;436.523;7.324;34.18;13.184
1553640584;-5.371;455.078;10.254;11.719;15.625
1553640584;-7.812;465.332;10.254;10.742;18.555
1553640584;-1.953;467.285;10.254;20.02;24.414
1553640584;17.578;460.449;15.625;19.043;21.484
1553640584;16.113;444.824;14.16;17.578;12.695
1553640584;0;431.152;12.207;24.902;13.672
1553640584;6.348;422.852;16.113;21.973;15.137
1553640584;19.043;407.715;16.113;15.625;21.973
1553640584;30.762;388.184;14.648;17.578;22.949
1553640584;29.785;368.652;14.648;19.531;20.02
1553640584;19.531;348.633;16.113;20.508;19.043
1553640584;28.32;325.195;18.555;16.602;23.926
1553640584;33.691;297.363;16.602;19.531;21.973
1553640584;28.32;272.949;16.602;28.809;23.438
1553640584;20.02;244.141;19.531;44.434;28.32
1553640584;29.297;214.355;22.461;48.34;35.156
1553640584;41.504;185.547;25.879;44.922;38.086
1553640584;45.898;147.461;26.855;53.711;38.574
1553640584;39.551;106.934;27.832;58.594;43.945
1553640584;30.762;66.895;28.809;39.062;42.48
1553640584;28.32;25.391;27.832;20.996;37.109
1553640584;19.043;-3.418;26.855;4.395;36.621
1553640584;31.25;-20.02;29.785;16.113;41.016
1553640584;46.875;-39.551;35.156;31.25;48.828
1553640584;36.133;-53.711;34.18;18.555;51.758
1553640584;29.297;-63.477;32.227;29.785;49.316
1553640584;32.227;-79.59;34.18;55.176;54.199
1553640584;33.203;-83.496;33.203;58.105;55.176
1553640584;47.852;-83.496;35.645;52.246;64.941
1553640584;57.129;-108.887;41.992;54.199;74.219
1553640584;64.941;-167.48;50.781;68.359;68.848
1553640584;62.988;-173.34;57.617;66.406;63.477
1553640584;39.062;-91.797;43.945;54.199;56.641
1553640584;40.039;-80.078;33.691;52.246;47.363
1553640584;54.688;-107.91;31.738;42.969;43.457
1553640584;34.18;-89.355;31.25;41.504;40.527
1553640584;23.926;-80.078;41.992;36.133;38.086
1553640584;36.133;-84.961;42.969;40.527;44.922
1553640584;48.34;-86.426;44.922;58.594;49.805
1553640584;51.758;-100.098;51.27;66.895;53.711
1553640584;49.805;-96.68;49.316;68.848;54.688
1553640584;55.664;-80.566;44.434;60.547;49.316
1553640584;51.27;-67.383;41.504;54.199;46.875
1553640584;42.969;-68.848;44.922;42.969;47.363
1553640584;60.547;-87.402;47.852;43.945;54.199
1553640584;62.5;-73.242;47.363;54.199;52.734
1553640584;48.34;-46.875;47.363;48.828;42.48
1553640584;52.246;-40.039;48.34;44.922;44.434
1553640584;64.453;-54.688;47.363;58.594;46.387
1553640584;64.453;-43.945;45.41;74.219;35.645
1553640584;48.34;-27.832;42.48;55.176;32.715
1553640584;50.781;-50.781;41.016;60.547;32.715
1553640584;73.242;-46.875;43.945;81.543;27.344
1553640584;65.918;-10.742;45.898;53.223;32.227
1553640584;27.344;-22.949;41.016;38.574;36.621
1553640584;20.996;-41.016;43.945;34.668;40.527
1553640584;37.109;-35.645;44.434;21.973;31.738
1553640584;33.691;-21.973;38.574;28.809;17.09
1553640584;22.461;-13.184;34.18;15.625;19.043
1553640584;14.16;-25.879;33.691;8.789;17.578
1553640584;17.578;-16.113;36.621;29.785;18.555
1553640584;31.25;0;39.062;43.457;24.414
1553640584;44.434;9.766;41.992;63.965;31.25
1553640584;59.57;8.301;41.992;45.898;28.809
1553640584;71.777;8.301;41.016;28.809;23.926
1553640584;60.059;7.324;41.016;34.18;26.855
1553640584;53.223;-8.789;42.969;40.527;21.973
1553640584;47.852;-10.254;42.969;41.016;22.949
1553640584;34.668;-1.465;43.457;31.25;29.785
1553640584;24.902;0.977;41.016;42.969;30.273
1553640584;28.809;4.395;36.133;44.922;32.715
1553640584;49.805;5.371;35.645;31.738;37.109
1553640584;51.758;8.301;34.18;43.457;34.668
1553640584;44.922;3.418;32.715;51.27;36.621
1553640584;48.828;7.812;32.715;44.922;40.039
1553640584;50.781;4.883;33.203;46.875;41.016
1553640584;64.453;-5.859;30.762;43.945;35.645
1553640584;75.195;2.441;30.762;30.273;31.738
1553640584;64.941;8.789;34.668;8.789;30.273
1553640584;52.246;5.371;36.621;30.273;35.156
1553640584;35.156;3.906;33.691;61.523;35.645
1553640584;39.551;-1.465;34.18;47.852;39.062
1553640584;62.988;-8.301;36.621;51.758;48.828
1553640584;59.57;-6.836;35.645;54.199;45.898
1553640584;35.156;0.488;32.715;44.434;41.504
1553640584;29.785;7.812;27.832;35.645;41.504
1553640584;42.48;3.906;30.273;30.762;45.898
1553640584;52.734;2.441;36.133;36.621;50.781
1553640584;65.918;2.441;33.203;20.508;44.434
1553640584;67.383;-1.953;33.691;31.738;31.738
1553640584;39.062;-4.395;35.156;56.641;25.391
1553640584;19.531;0;32.715;41.016;29.785
1553640584;20.996;-5.371;32.715;23.438;38.086
1553640584;26.855;-9.766;32.715;23.438;36.621
1553640584;36.621;-7.324;32.715;49.316;40.039
1553640584;56.152;-11.23;37.598;71.289;38.086
1553640584;63.965;-11.719;37.598;45.898;31.738
1553640584;43.457;-4.883;36.621;26.855;33.691
1553640584;44.922;1.953;38.086;27.832;35.645
1553640584;52.734;-2.441;34.668;20.02;41.504
1553640584;29.785;-3.418;33.691;34.18;39.062
1553640584;34.668;0;34.18;44.922;41.504
1553640584;41.992;-3.906;33.203;42.48;48.34
1553640584;41.992;-10.742;35.645;22.949;44.434
1553640584;40.039;-19.043;39.551;14.16;41.016
1553640584;35.645;-22.461;39.551;32.715;41.504
1553640584;50.781;-22.949;38.086;35.156;47.852
1553640584;60.547;-24.902;36.621;30.273;49.805
1553640584;46.387;-20.996;36.133;29.297;43.945
1553640584;35.156;-23.438;39.062;63.477;49.316
1553640584;40.039;-25.879;43.945;100.098;55.176
1553640584;31.738;-28.32;41.504;50.781;50.293
1553640584;22.949;-19.531;37.109;12.207;42.969
1553640584;31.25;-8.301;38.086;26.367;44.922
1553640584;47.363;-30.273;38.574;57.617;62.012
1553640584;55.176;-29.297;40.527;74.219;67.383
1553640584;46.875;-12.695;40.039;35.645;58.594
1553640584;30.273;-0.977;34.668;33.203;48.34
1553640584;22.461;4.395;36.621;53.711;50.293
1553640584;28.32;-1.953;36.621;58.105;58.105
1553640584;21.484;0.977;34.18;52.246;57.129
1553640584;17.578;-5.859;36.621;36.621;53.223
1553640584;23.926;-10.254;40.039;31.25;49.805
1553640584;37.598;-3.418;41.992;39.551;51.27
1553640584;57.129;-3.906;41.992;42.48;55.664
1553640584;42.969;-3.906;39.551;29.785;51.27
1553640584;26.855;7.324;40.039;41.992;49.316
1553640584;29.297;13.672;38.086;58.594;48.828
1553640584;22.461;8.301;36.621;44.434;48.828
1553640584;19.043;7.324;38.574;40.039;48.34
1553640584;11.719;11.719;39.062;40.527;32.715
1553640584;9.277;7.324;41.016;30.762;28.809
1553640584;23.926;-2.441;38.086;27.344;39.062
1553640584;40.527;-11.719;39.062;43.457;28.32
1553640584;30.762;-3.418;41.992;42.48;20.02
1553640584;19.043;1.953;40.039;17.09;26.855
1553640584;21.484;4.395;40.039;21.973;35.645
1553640584;33.691;-1.465;41.992;50.293;43.457
1553640584;36.133;-2.93;40.527;71.777;43.457
1553640584;31.738;22.949;29.297;67.871;43.945
1553640584;36.621;27.344;25.391;63.477;33.691
1553640584;31.738;20.508;35.156;50.781;33.203
1553640584;26.855;22.949;38.574;31.738;36.133
1553640584;35.645;16.602;37.109;23.438;33.203
1553640584;29.785;5.371;36.133;18.555;40.039
1553640584;5.859;7.812;35.156;20.02;49.805
1553640584;3.906;11.719;34.18;21.484;45.41
1553640584;29.785;12.207;33.691;39.551;39.551
1553640584;54.688;18.066;32.227;55.176;35.645
1553640584;18.555;16.602;32.227;57.129;40.527
1553640584;-2.441;9.766;32.715;44.922;40.527
1553640584;33.203;11.719;34.668;29.297;35.156
1553640584;71.777;13.672;37.109;43.457;39.551
1553640584;79.102;5.859;36.133;68.848;36.133
1553640584;40.039;8.301;34.668;75.195;38.086
1553640584;22.949;14.16;34.668;50.781;39.062
1553640584;27.832;11.23;35.645;30.273;37.109
1553640584;9.277;8.789;31.25;0;40.039
1553640584;9.277;9.277;28.809;-0.977;37.598
1553640584;12.207;0.488;34.668;11.23;27.344
1553640584;12.695;-4.883;33.203;3.418;26.367
1553640584;30.762;-0.977;29.785;7.812;27.344
1553640584;40.039;1.465;30.762;32.227;38.086
1553640584;38.086;5.859;30.762;34.668;36.621
1553640584;23.438;-3.906;32.715;32.715;18.066
1553640584;17.09;-2.93;32.715;39.062;20.02
1553640584;13.184;1.465;30.762;26.367;26.367
1553640584;5.859;-3.418;33.691;29.785;24.414
1553640584;21.484;3.906;34.668;33.203;22.949
1553640584;35.645;5.371;32.715;26.855;23.926
1553640584;37.109;-0.977;34.18;19.043;24.902
1553640584;27.344;-8.301;35.156;17.09;34.18
1553640584;30.762;-13.184;38.086;23.926;41.504
1553640584;29.297;-14.16;41.016;37.598;32.715
1553640584;32.715;-14.648;36.621;47.363;20.508
1553640584;40.039;-5.371;33.691;50.293;20.508
1553640584;28.32;10.742;36.621;46.387;21.973
1553640584;29.297;18.555;33.203;37.109;24.902
1553640584;36.621;21.484;25.391;41.504;30.762
1553640584;33.691;16.113;31.738;36.133;34.668
1553640584;12.207;11.23;33.691;20.996;25.879
1553640584;16.113;2.93;38.574;21.484;19.043
1553640584;54.688;9.766;44.922;28.809;29.785
1553640584;42.48;20.508;35.645;30.273;33.203
1553640584;12.695;16.113;39.062;24.902;29.785
1553640584;33.691;12.695;41.504;35.156;27.832
1553640584;87.402;-6.348;41.504;47.852;22.949
1553640584;86.426;0.977;36.621;45.898;26.855
1553640584;15.625;15.625;33.691;45.898;42.969
1553640584;-1.953;8.789;26.367;62.988;58.594
1553640584;12.695;11.23;23.438;55.664;66.406
1553640584;9.766;8.789;41.016;10.742;48.828
1553640584;-7.324;6.836;52.734;0.488;27.832
1553640584;-5.859;-2.441;52.734;23.926;23.926
1553640584;9.277;-4.395;45.41;16.602;19.043
1553640585;0.488;-2.93;40.039;28.32;24.414
1553640585;-6.836;-3.906;42.48;25.391;29.297
1553640585;-1.953;-15.137;43.457;-3.906;19.043
1553640585;5.859;-38.574;39.062;-2.441;0.488
1553640585;9.766;-23.438;39.062;15.625;-16.113
1553640585;7.812;7.812;38.574;22.461;-3.906
1553640585;13.672;2.93;30.762;19.043;8.789
1553640585;28.809;-25.391;29.785;23.438;16.602
1553640585;35.156;-5.371;40.039;27.344;20.508
1553640585;21.973;18.066;38.574;45.898;13.184
1553640585;14.16;10.742;34.668;39.062;17.09
1553640585;10.254;12.207;38.086;0;24.902
1553640585;3.418;13.184;36.621;1.465;23.438
1553640585;7.812;6.836;41.016;11.719;26.367
1553640585;16.602;8.789;36.621;26.367;37.598
1553640585;25.391;10.254;26.855;41.016;41.016
1553640585;26.855;9.766;31.25;33.691;36.621
1553640585;29.297;12.207;38.086;25.879;36.621
1553640585;26.855;12.695;40.039;19.043;35.645
1553640585;20.02;22.949;38.574;18.555;40.039
1553640585;21.484;24.414;36.621;44.922;28.32
1553640585;31.738;18.555;34.668;65.43;23.926
1553640585;35.156;20.996;35.645;43.945;47.363
1553640585;34.18;15.137;36.621;23.438;50.293
1553640585;34.18;6.836;37.598;51.758;42.969
1553640585;47.852;-3.418;36.621;55.664;43.945
1553640585;67.383;12.207;33.203;24.902;46.387
1553640585;48.828;37.109;30.273;49.805;52.246
1553640585;57.617;4.883;31.25;105.469;50.781
1553640585;74.219;-5.859;35.156;100.098;48.34
1553640585;28.809;27.832;27.832;26.855;50.293
1553640585;6.836;46.875;25.879;-10.254;57.617
1553640585;31.738;10.254;43.945;-7.324;68.359
1553640585;41.016;-10.742;34.668;13.184;74.219
1553640585;24.414;21.484;13.184;23.926;77.148
1553640585;13.672;34.668;33.691;13.184;67.383
1553640585;8.301;44.922;45.898;15.137;46.875
1553640585;16.113;51.27;42.969;31.25;24.414
1553640585;15.137;43.945;40.039;42.969;15.625
1553640585;16.602;38.086;34.18;21.484;23.926
1553640585;43.457;33.203;33.691;24.902;33.691
1553640585;57.129;33.203;26.855;18.555;37.109
1553640585;33.691;31.25;22.461;14.16;38.086
1553640585;13.672;22.949;20.996;47.852;34.668
1553640585;23.438;30.762;17.578;45.898;36.133
1553640585;54.688;40.527;16.602;38.086;45.41
1553640585;71.289;44.434;18.066;91.797;66.406
1553640585;62.5;41.016;29.785;86.426;48.34
1553640585;34.18;28.809;48.34;20.996;6.348
1553640585;7.324;-4.395;48.828;-12.207;-2.441
1553640585;-31.25;-35.645;46.387;-38.086;-10.254
1553640585;-67.871;-17.09;51.758;-38.574;-24.902
1553640585;-61.035;-3.418;58.105;-26.855;-22.461
1553640585;-60.547;0.977;58.105;-46.875;-22.949
1553640585;-98.145;25.391;53.223;-68.359;-61.523
1553640585;-128.418;17.09;47.852;-87.402;-103.027
1553640585;-145.508;-10.254;39.062;-97.656;-120.605
1553640585;-162.109;-21.973;45.898;-103.516;-119.629
1553640585;-165.527;-14.16;52.734;-125.488;-123.535
1553640585;-175.293;-18.555;66.406;-150.879;-140.137
1553640585;-184.082;-33.691;77.637;-136.719;-130.371
1553640585;-189.453;-38.574;62.012;-117.188;-118.652
1553640585;-199.219;-43.457;49.316;-119.629;-125.977
1553640585;-182.129;-51.27;57.617;-116.699;-116.699
1553640585;-162.598;-67.383;69.824;-91.309;-110.352
1553640585;-151.367;-67.383;84.961;-77.637;-112.305
1553640585;-149.902;-62.5;83.984;-78.125;-105.957
1553640585;-139.648;-67.383;79.102;-56.152;-81.055
1553640585;-116.699;-71.777;80.566;-52.246;-68.848
1553640585;-85.938;-76.172;79.59;-41.504;-58.105
1553640585;-84.473;-78.125;82.031;-9.766;-33.691
1553640585;-66.895;-75.684;71.289;31.25;-14.16
1553640585;-35.156;-80.078;63.477;43.457;-4.883
1553640585;-36.621;-80.078;59.082;15.625;-11.23
1553640585;-21.484;-68.359;48.828;28.809;12.695
1553640585;-2.93;-59.57;54.199;44.922;31.738
1553640585;10.254;-53.223;56.152;48.34;30.762
1553640585;30.273;-45.898;46.875;56.152;30.762
1553640585;25.879;-40.039;41.992;54.199;26.855
1553640585;7.324;-36.621;33.691;64.453;35.645
1553640585;19.531;-31.25;29.297;80.566;35.645
1553640585;27.832;-25.391;30.273;81.055;36.133
1553640585;24.414;-23.438;31.738;81.543;44.434
1553640585;38.086;-20.02;28.809;76.172;49.316
1553640585;39.551;-16.602;20.508;82.52;43.945
1553640585;42.48;-14.16;24.414;95.703;37.109
1553640585;42.969;-12.207;27.832;91.797;41.504
1553640585;38.086;-7.812;22.949;98.145;45.41
1553640585;55.664;-2.93;22.949;84.473;35.645
1553640585;52.734;0.488;19.531;32.715;26.855
1553640585;39.062;1.953;16.113;13.672;30.273
1553640585;39.551;4.883;22.461;20.02;46.875
1553640585;32.715;6.348;22.461;46.875;37.598
1553640585;21.484;5.859;15.625;54.688;26.855
1553640585;21.973;13.672;15.625;36.621;35.156
1553640585;31.738;7.324;14.648;47.363;37.109
1553640585;41.504;2.93;9.766;50.781;35.156
1553640585;50.293;18.555;9.277;52.246;36.621
1553640585;50.293;21.973;21.484;48.34;31.25
1553640585;30.762;20.508;32.715;52.246;26.367
1553640585;28.809;21.973;33.691;61.523;39.551
1553640585;39.551;20.996;31.738;52.246;34.668
1553640585;42.48;19.531;19.531;45.41;29.297
1553640585;43.457;17.578;17.09;42.48;35.156
1553640585;34.668;14.16;25.879;32.227;33.203
1553640585;40.039;16.602;25.879;37.598;24.902
1553640585;58.105;24.414;26.855;55.176;34.18
1553640585;57.617;24.902;28.809;57.617;46.875
1553640585;50.781;22.461;27.832;58.594;42.969
1553640585;59.082;25.879;25.879;57.129;30.273
1553640585;70.801;28.809;21.484;41.504;14.648
1553640585;47.852;30.273;22.461;39.551;21.973
1553640585;28.32;29.297;19.531;51.758;35.645
1553640585;22.949;28.32;21.973;56.152;43.457
1553640585;38.574;26.855;28.809;57.617;43.945
1553640585;55.176;28.809;22.461;47.852;41.504
1553640585;35.156;28.809;23.438;44.922;54.199
1553640585;23.438;29.297;31.25;47.852;68.848
1553640585;25.879;27.832;31.25;49.316;61.035
1553640585;34.18;26.855;29.297;79.59;47.363
1553640585;31.738;29.297;26.367;95.703;43.945
1553640585;30.273;29.297;21.484;43.945;58.105
1553640585;39.062;28.809;17.09;12.695;54.199
1553640585;51.27;32.715;14.16;19.043;35.645
1553640585;48.828;29.785;18.066;32.227;44.922
1553640585;45.898;23.438;27.344;43.457;54.199
1553640585;43.945;29.297;27.832;34.18;47.363
1553640585;19.043;27.832;30.762;32.227;30.273
1553640585;21.973;27.832;32.227;32.715;28.32
1553640585;30.273;32.227;31.25;29.297;35.645
1553640585;22.949;27.344;30.762;28.32;33.691
1553640585;31.738;28.32;27.832;34.18;22.949
1553640585;46.387;29.297;25.391;38.574;15.625
1553640585;59.082;28.32;23.438;31.25;15.137
1553640585;48.34;28.32;19.043;25.879;21.973
1553640585;18.066;26.367;15.137;16.602;26.367
1553640585;-4.395;24.902;17.578;50.781;0.488
1553640585;21.484;24.414;20.02;64.941;-1.953
1553640585;39.062;23.926;21.973;34.18;25.391
1553640585;28.809;25.879;26.855;42.48;23.438
1553640585;30.273;26.367;27.344;31.738;-0.977
1553640585;18.066;7.324;30.762;42.969;-8.789
1553640585;20.996;2.93;36.621;43.945;7.324
1553640585;38.574;26.367;33.203;0.488;17.09
1553640585;48.828;30.762;21.484;18.555;-1.465
1553640585;28.809;26.367;17.578;44.922;-9.277
1553640585;9.277;29.297;23.438;9.277;10.254
1553640585;11.23;26.367;27.832;0;14.648
1553640585;15.625;24.414;26.855;21.973;3.906
1553640585;18.555;22.949;22.949;7.324;-0.488
1553640585;23.438;20.508;23.926;7.324;4.395
1553640585;26.855;20.508;25.879;8.301;4.395
1553640585;18.555;21.973;21.484;8.301;-9.277
1553640585;22.949;24.414;25.879;18.555;-7.812
1553640585;33.691;20.508;32.715;4.883;-7.324
1553640585;23.926;20.02;28.32;1.465;-1.465
1553640585;17.578;23.926;29.297;22.949;9.766
1553640585;25.879;22.949;28.32;26.367;2.93
1553640585;19.043;24.414;23.438;35.645;-0.488
1553640585;27.832;12.695;31.738;52.246;22.949
1553640585;58.594;2.93;34.668;29.785;25.879
1553640585;65.918;5.859;33.691;17.578;15.137
1553640585;50.293;24.414;36.133;32.227;20.508
1553640585;2.93;44.922;31.738;13.184;9.766
1553640585;-11.23;46.875;25.879;-5.859;8.789
1553640585;22.949;48.34;21.484;14.648;18.555
1553640585;43.457;43.457;24.414;33.691;14.648
1553640585;22.949;33.691;33.691;38.086;20.508
1553640585;12.695;29.785;30.273;35.156;40.039
1553640585;27.344;28.32;24.414;48.828;41.016
1553640585;18.066;30.762;30.273;45.898;26.855
1553640585;16.602;36.621;34.18;43.945;31.25
1553640585;38.574;38.086;34.18;47.852;46.387
1553640585;53.223;32.715;33.691;26.367;49.316
1553640585;53.223;16.602;30.273;30.273;41.016
1553640585;71.289;13.184;27.344;34.668;37.109
1553640585;84.473;-21.484;38.574;35.645;67.871
1553640585;48.34;-19.531;39.551;41.992;80.078
1553640585;20.02;46.875;29.297;24.902;35.156
1553640585;9.766;70.801;22.461;16.602;10.254
1553640585;24.902;56.641;21.973;33.203;25.879
1553640585;49.316;44.922;33.691;45.898;44.434
1553640585;41.992;52.734;37.598;33.691;31.25
1553640585;29.297;45.41;27.832;23.438;11.719
1553640585;27.832;38.086;21.973;4.883;6.348
1553640585;31.25;36.133;24.414;3.906;0.977
1553640585;31.738;35.156;24.414;25.879;-3.418
1553640585;38.086;42.48;21.973;44.434;-33.203
1553640585;41.992;42.969;25.391;43.457;-46.387
1553640585;41.992;35.645;30.762;54.688;-5.859
1553640585;44.434;31.25;34.18;43.457;32.227
1553640585;35.645;39.062;34.668;20.02;34.668
1553640585;41.016;25.391;35.645;32.227;35.645
1553640585;67.383;20.508;30.273;29.297;62.012
1553640585;93.75;19.531;21.973;33.203;76.172
1553640585;85.449;5.859;36.621;59.082;61.523
1553640585;48.828;47.852;51.27;56.641;52.734
1553640585;42.969;68.848;45.898;25.879;55.176
1553640585;24.902;61.523;45.41;23.926;42.48
1553640585;11.719;75.195;43.457;25.879;27.832
1553640585;22.461;67.871;38.086;16.602;15.137
1553640585;29.785;51.27;38.086;18.066;14.16
1553640585;27.344;48.34;35.645;31.25;21.973
1553640585;30.273;46.387;37.109;52.246;16.602
1553640585;23.438;41.992;40.039;38.086;-1.465
1553640585;42.48;39.062;32.227;18.555;-10.742
1553640585;88.867;39.551;30.273;14.16;-16.602
1553640585;73.73;36.133;38.086;-2.441;-40.527
1553640585;31.25;28.32;40.039;0.977;-31.738
1553640585;26.855;22.949;43.457;42.48;12.695
1553640585;39.551;11.23;42.48;51.27;39.551
1553640585;55.664;27.832;47.852;33.203;69.824
1553640585;43.457;77.637;43.945;7.324;61.523
1553640585;12.695;52.734;26.367;8.789;21.484
1553640585;12.207;45.898;36.621;41.016;32.227
1553640585;11.719;72.754;41.016;37.598;46.875
1553640585;2.93;53.223;24.902;15.137;22.461
1553640585;-0.488;47.852;16.113;6.836;7.812
1553640585;18.066;49.316;11.23;27.344;17.578
1553640585;43.945;37.109;5.371;27.832;37.109
1553640585;33.203;34.668;13.184;18.066;41.504
1553640585;30.273;41.016;41.504;38.574;19.531
1553640585;42.969;35.156;56.641;0.977;26.367
1553640585;38.574;26.855;56.152;-5.371;43.457
1553640585;29.297;37.598;66.895;32.227;35.156
1553640585;25.879;60.547;54.199;32.227;24.902
1553640585;39.062;50.781;32.227;13.672;33.691
1553640585;47.363;52.246;43.945;12.695;47.363
1553640585;65.43;60.059;55.664;12.207;70.801
1553640585;64.941;0.488;45.41;23.926;68.359
1553640585;60.547;13.184;28.32;46.875;52.246
1553640585;69.824;61.523;11.719;4.395;41.504
1553640585;65.918;64.453;1.465;13.184;29.785
1553640585;51.27;50.781;2.441;37.109;25.879
1553640585;29.297;41.504;15.625;22.949;29.297
1553640585;16.113;46.387;33.203;27.832;40.039
1553640585;28.32;48.34;46.387;38.086;52.246
1553640585;29.297;42.48;35.645;36.621;60.059
1553640585;26.855;46.875;20.508;42.48;53.711
1553640585;30.273;51.27;24.414;53.711;42.48
1553640585;44.434;53.711;52.246;57.617;68.359
1553640585;82.52;54.199;62.5;71.777;93.75
1553640585;40.527;45.898;21.973;44.922;43.457
1553640585;1.953;53.223;6.836;10.254;12.695
1553640585;10.254;50.293;9.766;8.301;25.879
1553640585;5.371;44.922;10.254;19.043;35.645
1553640585;10.742;44.434;13.672;22.461;36.133
1553640585;20.02;41.016;15.625;24.902;35.645
1553640585;35.645;40.039;18.555;27.832;41.016
1553640585;33.203;38.574;18.066;38.574;51.27
1553640585;31.738;39.551;16.113;43.945;49.316
1553640585;30.273;39.551;20.508;42.48;36.621
1553640585;27.832;38.574;23.438;39.062;35.156
1553640585;42.48;36.133;21.973;45.41;48.828
1553640585;41.016;33.691;24.414;60.547;53.711
1553640585;14.16;42.48;26.855;47.852;38.086
1553640586;6.836;38.574;24.414;16.113;32.715
1553640586;30.273;37.598;20.02;-4.395;40.039
1553640586;31.25;41.992;17.578;-2.441;46.387
1553640586;15.625;34.668;20.02;3.418;45.41
1553640586;20.508;38.574;22.461;12.695;40.527
1553640586;20.02;44.922;21.484;19.531;31.738
1553640586;27.832;44.922;19.043;16.602;31.738
1553640586;19.043;40.527;20.02;28.809;25.391
1553640586;4.883;37.598;23.438;36.133;6.348
1553640586;22.461;37.109;21.973;25.879;7.324
1553640586;23.438;36.133;23.926;35.645;20.996
1553640586;21.973;36.621;23.926;47.363;24.414
1553640586;27.832;34.668;20.02;45.898;20.02
1553640586;15.137;29.297;20.508;41.016;21.973
1553640586;8.789;27.344;25.391;15.625;29.785
1553640586;7.324;32.227;23.438;-3.906;28.32
1553640586;12.207;40.039;18.066;11.23;23.926
1553640586;31.25;25.391;14.16;29.297;12.695
1553640586;34.18;24.902;18.066;49.805;8.789
1553640586;32.227;30.273;35.156;48.34;37.109
1553640586;55.664;9.277;50.293;55.176;73.242
1553640586;26.855;16.113;24.414;44.434;48.34
1553640586;-3.906;45.898;9.277;-4.395;5.859
1553640586;-7.812;56.152;30.273;-8.789;14.16
1553640586;-20.02;40.039;29.785;-13.184;14.16
1553640586;-19.531;32.715;26.367;-1.953;6.836
1553640586;-16.602;20.02;23.926;18.066;8.789
1553640586;-2.93;20.996;26.367;11.23;25.391
1553640586;23.438;25.391;24.414;-3.418;38.086
1553640586;51.758;-42.48;19.531;0.488;27.832
1553640586;131.348;-22.461;64.941;95.703;88.867
1553640586;147.949;80.078;79.59;149.414;125.488
1553640586;21.484;77.148;24.414;41.016;50.781
1553640586;-26.855;-6.836;2.441;-20.508;7.324
1553640586;15.137;-4.395;9.766;12.207;20.02
1553640586;19.043;79.102;34.18;36.621;43.457
1553640586;-11.23;72.266;32.715;38.574;33.203
1553640586;-19.043;42.48;34.668;63.965;10.742
1553640586;-9.766;41.504;34.18;50.293;13.672
1553640586;-10.254;20.996;19.531;50.781;13.672
1553640586;8.301;19.531;34.18;79.59;29.297
1553640586;1.953;36.621;40.039;48.828;60.547
1553640586;31.738;29.297;41.016;40.527;79.102
1553640586;70.801;22.949;35.156;-2.93;75.195
1553640586;36.133;-29.785;6.348;-72.754;57.617
1553640586;19.531;-94.727;28.809;-24.902;77.637
1553640586;52.246;0.977;53.223;38.086;79.59
1553640586;141.602;143.555;73.242;143.555;109.375
1553640586;125.488;128.906;55.664;136.719;112.793
1553640586;-24.414;39.551;0.977;-10.254;19.043
1553640586;-39.062;40.527;14.16;-15.137;-33.691
1553640586;20.508;73.242;40.527;43.945;6.348
1553640586;-1.953;54.199;22.461;36.621;16.602
1553640586;-25.391;51.758;11.23;-10.254;-5.371
1553640586;-14.16;49.805;3.418;-1.953;-16.113
1553640586;-3.906;58.594;-10.254;19.531;-22.949
1553640586;-16.113;29.785;12.207;7.324;-22.949
1553640586;-9.766;-26.855;35.645;41.016;21.484
1553640586;14.16;25.879;53.223;83.008;60.059
1553640586;13.672;79.102;57.129;65.43;11.719
1553640586;-20.996;57.617;7.324;44.922;-24.902
1553640586;-47.852;70.801;-30.273;14.16;-33.691
1553640586;-19.531;27.832;24.414;-14.16;-18.066
1553640586;7.324;-22.949;52.734;22.461;-16.602
1553640586;-18.066;2.441;22.461;26.367;-59.57
1553640586;-40.039;101.074;20.508;-32.227;-79.59
1553640586;-79.59;141.113;10.742;-49.805;-78.125
1553640586;-97.168;96.68;1.465;-50.293;-84.473
1553640586;-84.961;71.777;6.348;-46.875;-75.195
1553640586;-69.824;60.059;6.348;-54.199;-45.898
1553640586;-63.477;58.594;10.254;-29.297;-32.227
1553640586;-53.223;63.477;11.719;5.859;-43.945
1553640586;-19.531;68.848;2.93;-22.461;-54.688
1553640586;-3.418;75.195;2.93;-41.992;-41.016
1553640586;-35.645;71.289;10.254;-14.16;-34.668
1553640586;-55.664;64.941;12.695;-17.09;-29.297
1553640586;-40.527;67.871;11.719;-18.066;-27.344
1553640586;-36.133;63.965;12.207;-36.133;-28.32
1553640586;-22.949;64.941;9.277;-41.504;-20.996
1553640586;8.301;68.848;10.254;-7.324;-25.879
1553640586;2.93;65.43;12.207;22.949;-28.809
1553640586;1.465;61.523;12.695;38.574;-25.879
1553640586;26.855;62.5;11.719;-3.418;-13.672
1553640586;31.25;62.5;11.719;7.324;-8.789
1553640586;32.227;59.082;16.113;16.113;-2.93
1553640586;37.109;58.105;21.973;14.648;8.789
1553640586;36.133;54.688;20.508;35.156;7.812
1553640586;41.016;56.152;17.578;29.297;14.16
1553640586;29.785;50.293;23.926;3.906;16.113
1553640586;27.832;42.48;25.879;-3.418;10.742
1553640586;51.758;47.852;23.926;20.508;8.789
1553640586;29.297;43.945;29.297;34.668;8.789
1553640586;21.484;39.062;32.227;29.297;23.926
1553640586;33.203;38.574;28.809;16.113;33.203
1553640586;37.598;31.738;29.785;20.02;43.457
1553640586;64.453;32.715;31.25;16.602;60.059
1553640586;71.289;34.668;28.32;5.371;64.453
1553640586;42.48;32.227;28.809;8.301;57.129
1553640586;29.785;31.25;32.715;24.414;58.594
1553640586;44.434;30.273;34.668;48.828;64.941
1553640586;77.148;21.484;37.598;59.57;67.383
1553640586;66.895;13.184;44.922;32.227;60.547
1553640586;37.598;24.902;45.898;23.438;52.734
1553640586;36.621;20.996;46.875;36.621;62.988
1553640586;27.832;4.395;46.387;31.25;76.172
1553640586;16.113;17.578;46.875;33.691;77.637
1553640586;50.781;33.691;45.898;45.41;74.219
1553640586;64.453;29.297;38.574;40.527;71.289
1553640586;46.875;21.484;35.645;48.828;79.59
1553640586;57.129;27.832;46.875;73.242;83.984
1553640586;80.078;-6.836;59.57;73.73;77.148
1553640586;95.703;-53.711;61.523;83.496;94.238
1553640586;73.242;-2.93;61.035;88.867;87.402
1553640586;50.293;42.48;61.523;48.828;74.219
1553640586;56.641;33.691;50.781;51.27;71.289
1553640586;31.738;32.715;36.621;59.57;47.852
1553640586;4.395;34.668;41.016;59.57;44.434
1553640586;18.066;41.016;49.805;54.199;52.734
1553640586;20.996;55.176;46.875;26.855;57.129
1553640586;54.199;39.062;36.133;18.066;61.523
1553640586;88.867;28.809;28.809;67.871;55.664
1553640586;84.473;41.016;29.297;96.68;62.988
1553640586;90.332;54.199;40.527;59.082;62.012
1553640586;96.68;58.105;41.992;60.059;47.363
1553640586;90.82;55.664;42.969;96.68;38.086
1553640586;90.82;51.758;45.41;95.215;57.617
1553640586;100.098;47.852;42.969;85.449;70.801
1553640586;91.797;43.945;46.875;77.148;62.988
1553640586;87.891;28.32;47.363;66.895;63.965
1553640586;106.934;-0.977;49.316;84.961;68.848
1553640586;110.84;-4.395;41.992;90.332;82.031
1553640586;97.168;46.875;39.551;93.262;68.359
1553640586;88.379;73.242;52.734;100.586;52.246
1553640586;75.684;62.988;50.293;88.379;48.828
1553640586;65.918;55.176;46.875;66.895;63.965
1553640586;65.43;46.875;49.316;83.984;67.383
1553640586;70.312;31.25;52.734;87.402;51.758
1553640586;86.426;28.809;49.805;64.941;58.105
1553640586;83.984;33.691;45.898;67.871;60.059
1553640586;78.613;34.668;44.434;72.754;61.035
1553640586;79.102;25.879;51.758;73.242;68.848
1553640586;86.426;5.371;43.945;71.289;52.246
1553640586;107.422;5.371;32.227;77.148;53.711
1553640586;141.113;6.348;65.43;114.258;96.191
1553640586;132.324;-1.465;66.895;118.652;85.938
1553640586;71.777;40.039;47.363;81.055;46.875
1553640586;32.227;83.008;53.223;68.359;35.645
1553640586;42.48;72.266;49.316;65.43;41.992
1553640586;62.5;56.641;54.688;82.52;42.969
1553640586;64.941;44.922;53.711;85.449;41.992
1553640586;71.289;33.691;49.316;65.43;47.852
1553640586;72.266;20.02;50.781;39.062;55.176
1553640586;76.66;28.32;45.898;26.855;61.523
1553640586;93.262;43.945;42.969;60.059;61.523
1553640586;96.68;36.133;39.551;88.867;63.965
1553640586;86.914;38.086;41.504;80.566;63.477
1553640586;86.426;42.48;44.922;59.082;67.383
1553640586;83.984;34.668;37.109;55.176;66.895
1553640586;74.707;34.18;32.715;76.172;62.988
1553640586;76.172;30.762;34.668;82.52;67.871
1553640586;85.938;22.949;38.086;73.73;62.5
1553640586;83.496;22.461;45.898;87.891;54.199
1553640586;89.844;26.855;50.293;104.98;52.734
1553640586;91.797;33.203;43.945;76.172;62.988
1553640586;96.191;34.18;38.086;71.289;84.473
1553640586;67.871;31.738;37.109;57.129;68.359
1553640586;15.137;30.762;38.574;32.227;40.527
1553640586;41.016;28.809;36.621;52.246;49.316
1553640586;54.688;27.344;31.738;62.012;62.5
1553640586;46.875;36.621;35.156;75.195;80.078
1553640586;72.754;47.852;40.527;66.895;85.449
1553640586;73.73;45.41;39.551;47.852;76.172
1553640586;52.734;38.574;40.527;62.5;66.406
1553640586;31.738;24.902;36.621;46.387;35.645
1553640586;26.855;17.578;33.691;26.367;23.438
1553640586;32.227;16.602;34.18;23.438;31.738
1553640586;15.625;17.09;34.668;37.109;32.715
1553640586;-2.93;25.879;35.156;29.785;39.551
1553640586;18.066;31.25;35.645;48.34;55.664
1553640586;36.133;30.273;37.598;56.152;52.734
1553640586;31.738;18.555;32.227;17.578;33.203
1553640586;36.133;-5.371;26.855;24.902;35.645
1553640586;41.016;-1.465;30.762;25.391;41.016
1553640586;36.621;20.996;37.109;8.789;22.461
1553640586;24.902;18.555;39.551;23.438;14.648
1553640586;19.531;39.062;38.086;30.762;28.32
1553640586;7.324;64.453;31.738;25.391;20.02
1553640586;-18.555;48.34;30.273;25.879;-3.906
1553640586;-3.906;23.926;32.715;27.832;10.254
1553640586;26.367;26.367;26.367;56.152;43.945
1553640586;26.367;31.738;38.086;65.918;35.156
1553640586;27.832;24.414;44.434;22.949;-0.977
1553640586;-3.418;15.137;37.598;14.16;-19.043
1553640586;-56.152;-1.465;40.527;-11.23;-19.531
1553640586;-48.828;-8.789;41.992;-46.387;-14.648
1553640586;-41.992;-26.367;42.969;-32.227;-34.18
1553640586;-84.961;-26.367;39.062;-18.066;-44.434
1553640586;-77.637;-7.812;34.18;-7.324;-40.039
1553640586;-29.297;-16.113;37.109;-4.395;-41.504
1553640586;-12.207;-22.949;37.109;2.93;-34.18
1553640586;-35.156;-16.602;42.48;-0.977;-46.387
1553640586;-67.871;-46.387;47.363;-22.461;-33.203
1553640586;-72.266;-41.992;41.992;-7.324;-21.484
1553640586;1.465;1.465;40.527;30.273;-43.457
1553640586;63.477;6.836;42.969;64.941;-35.156
1553640586;-9.766;-6.348;33.203;34.18;-23.438
1553640586;-43.457;12.207;20.02;-35.156;-2.441
1553640586;-28.809;8.301;23.438;-52.246;0
1553640586;-38.574;-14.648;40.527;-20.02;-2.441
1553640586;-20.996;18.066;47.363;2.441;15.137
1553640586;14.16;28.809;55.664;29.297;26.855
1553640586;71.777;-4.395;47.852;39.551;29.297
1553640586;66.406;-16.113;30.762;21.484;35.156
1553640586;34.18;22.949;32.715;43.945;53.711
1553640586;28.32;21.484;22.461;55.664;48.828
1553640586;48.828;19.531;26.367;60.547;50.781
1553640586;69.336;33.203;41.016;69.336;70.312
1553640586;62.012;21.973;33.691;62.988;63.965
1553640586;60.547;13.672;29.297;65.43;57.617
1553640586;57.129;-32.715;43.945;73.73;72.754
1553640586;62.988;-16.602;46.875;104.98;107.422
1553640586;93.262;58.105;46.875;113.77;92.285
1553640586;102.539;70.312;57.129;89.355;68.848
1553640586;107.91;31.25;67.383;99.121;104.492
1553640586;70.312;42.969;50.293;85.938;82.031
1553640586;29.785;78.613;13.184;36.621;16.113
1553640586;40.039;49.316;11.23;29.297;22.949
1553640586;62.988;47.852;23.926;45.41;47.852
1553640586;70.312;46.387;25.879;37.598;54.688
1553640586;99.121;28.809;26.367;46.875;58.594
1553640586;104.004;24.902;30.273;63.965;64.941
1553640586;88.867;0.488;37.109;86.426;73.73
1553640586;88.379;42.48;21.484;74.707;76.66
1553640586;67.871;91.309;15.625;27.832;72.754
1553640586;74.219;77.148;26.367;29.785;65.43
1553640586;130.859;66.406;23.438;48.828;71.289
1553640586;114.746;64.453;22.461;51.758;55.664
1553640586;70.312;51.27;24.414;61.035;33.203
1553640586;89.355;43.457;28.809;68.848;42.48
1553640586;92.773;47.363;26.855;54.688;43.945
1553640586;110.84;17.578;30.762;52.734;45.898
1553640586;145.508;-23.438;32.715;80.078;69.336
1553640586;136.23;37.109;22.461;100.098;57.129
1553640586;102.051;109.375;20.508;66.895;28.809
1553640586;73.242;102.539;25.391;41.992;33.691
1553640586;69.824;81.055;25.879;44.434;36.133
1553640586;116.699;69.824;22.461;43.457;53.711
1553640586;116.211;61.523;20.02;52.246;55.176
1553640586;83.008;52.246;21.484;39.551;31.738
1553640586;79.59;50.293;18.066;25.879;37.109
1553640586;77.148;49.316;15.625;32.227;41.016
1553640586;97.656;44.434;20.508;40.527;26.367
1553640586;99.121;43.945;28.32;35.645;21.484
1553640586;52.246;43.457;25.391;7.324;36.621
1553640586;50.293;41.992;22.949;16.113;46.387
1553640586;81.055;37.598;22.949;39.062;27.832
1553640587;76.172;36.621;14.16;30.762;25.391
1553640587;62.5;42.969;18.066;31.738;41.992
1553640587;90.332;37.109;29.785;70.312;41.992
1553640587;82.031;20.508;28.32;65.43;26.855
1553640587;62.5;24.414;15.625;32.227;27.344
1553640587;59.57;40.039;15.625;20.508;19.531
1553640587;41.504;46.875;20.508;23.438;10.254
1553640587;47.852;47.852;23.438;36.621;27.344
1553640587;62.012;51.27;26.367;41.992;21.484
1553640587;56.641;23.926;33.203;64.941;25.879
1553640587;40.039;21.484;41.016;64.453;30.762
1553640587;20.996;59.57;35.156;25.391;25.879
1553640587;18.555;56.152;23.438;32.227;21.973
1553640587;5.859;39.062;16.113;30.273;25.879
1553640587;4.883;34.668;19.043;15.625;40.039
1553640587;19.531;35.645;24.414;24.414;46.875
1553640587;6.836;28.809;20.996;28.809;41.992
1553640587;12.207;14.16;17.09;27.344;42.48
1553640587;27.344;16.113;18.066;22.949;49.805
1553640587;16.602;31.738;22.949;37.598;67.871
1553640587;5.859;23.926;27.344;33.203;55.176
1553640587;-7.812;-1.465;33.691;8.301;21.973
1553640587;6.348;15.625;33.203;26.855;31.738
1553640587;14.16;52.734;14.648;19.043;38.574
1553640587;-10.742;52.246;21.973;14.648;24.902
1553640587;-39.551;41.016;39.062;41.504;13.184
1553640587;-28.809;35.156;39.062;62.012;6.348
1553640587;22.461;33.203;32.715;51.758;13.184
1553640587;18.555;31.25;31.738;22.461;20.508
1553640587;-23.438;30.273;29.297;2.93;21.973
1553640587;-36.621;31.25;22.949;-14.16;14.648
1553640587;-54.688;29.785;22.949;8.301;6.348
1553640587;-32.227;23.926;25.391;4.883;26.367
1553640587;3.906;20.02;25.391;-13.672;21.973
1553640587;-5.859;21.484;23.926;-3.418;14.16
1553640587;5.371;31.738;20.508;27.344;11.719
1553640587;0.488;38.574;21.973;48.828;14.648
1553640587;-51.758;30.762;27.344;21.973;37.598
1553640587;-18.555;31.738;26.855;14.16;49.805
1553640587;52.246;33.691;29.785;50.781;27.832
1553640587;22.461;13.184;27.344;47.852;3.906
1553640587;6.836;6.836;22.949;18.555;14.648
1553640587;2.93;28.32;23.926;22.949;23.926
1553640587;14.648;43.945;24.414;13.184;17.09
1553640587;-3.906;41.016;26.855;-2.441;26.367
1553640587;-16.602;32.715;31.25;22.461;33.203
1553640587;20.996;32.715;31.738;27.832;13.184
1553640587;62.988;31.25;30.762;43.457;4.883
1553640587;66.895;25.879;27.344;41.016;2.93
1553640587;43.457;21.484;26.855;26.855;23.926
1553640587;60.059;22.949;31.25;80.566;26.855
1553640587;93.262;27.832;24.902;94.727;10.742
1553640587;73.73;10.254;36.621;59.082;27.344
1553640587;45.898;7.812;54.199;50.293;32.715
1553640587;37.598;33.203;38.574;49.805;18.555
1553640587;21.973;40.527;31.25;41.016;2.441
1553640587;40.527;34.668;24.902;10.742;0
1553640587;53.711;36.133;24.414;11.23;18.555
1553640587;59.082;11.719;38.574;9.277;23.438
1553640587;51.758;2.441;33.691;9.277;2.441
1553640587;56.152;33.691;27.832;22.949;-7.812
1553640587;59.082;30.762;32.227;23.438;-6.348
1553640587;55.176;19.043;32.715;12.695;-7.324
1553640587;59.57;32.715;34.18;20.02;-2.441
1553640587;71.289;15.625;36.621;27.832;11.719
1553640587;68.848;18.066;40.039;27.832;14.648
1553640587;86.426;37.109;39.062;30.273;16.602
1553640587;120.117;23.926;44.922;52.246;37.598
1553640587;114.258;29.297;48.828;58.105;33.691
1553640587;72.266;41.016;35.156;34.18;14.16
1553640587;62.988;25.391;21.973;39.551;23.438
1553640587;64.453;33.691;26.367;49.805;38.574
1553640587;42.969;43.457;34.668;33.203;31.25
1553640587;58.105;36.133;35.156;21.973;16.602
1553640587;68.359;34.18;34.18;17.578;16.113
1553640587;55.664;26.367;33.691;22.461;19.043
1553640587;58.105;27.832;32.715;33.691;15.625
1553640587;76.172;30.762;33.203;34.668;15.137
1553640587;72.266;17.578;34.18;69.824;21.484
1553640587;47.363;16.602;14.16;55.664;36.621
1553640587;73.73;41.504;13.672;8.789;36.133
1553640587;94.727;42.969;36.621;13.672;26.855
1553640587;60.547;32.227;44.434;16.602;31.738
1553640587;60.547;34.18;39.551;33.203;31.738
1553640587;64.453;26.855;32.715;30.762;28.32
1553640587;41.016;24.414;35.156;14.16;22.949
1553640587;49.805;33.691;39.551;22.949;32.227
1553640587;87.891;31.25;36.621;19.531;47.363
1553640587;95.215;40.039;29.785;20.508;31.738
1553640587;93.75;25.879;20.996;23.438;20.02
1553640587;110.84;-20.02;19.043;28.32;29.297
1553640587;83.984;7.812;32.227;43.945;45.41
1553640587;44.922;67.871;31.25;55.176;45.898
1553640587;33.691;66.406;25.391;43.945;25.391
1553640587;31.738;49.805;28.32;29.785;24.414
1553640587;24.902;44.434;25.879;34.18;33.691
1553640587;29.297;36.133;30.762;31.25;36.133
1553640587;47.363;29.297;21.973;19.531;33.203
1553640587;65.43;20.02;16.602;26.367;37.109
1553640587;67.383;17.09;38.086;32.227;45.898
1553640587;49.805;24.902;45.41;26.855;43.457
1553640587;54.688;35.645;39.062;34.18;37.598
1553640587;74.707;41.992;32.227;38.574;25.879
1553640587;84.473;35.645;33.691;31.738;29.297
1553640587;83.008;29.297;30.762;22.461;34.668
1553640587;82.52;22.949;17.578;29.785;27.832
1553640587;71.777;17.09;19.043;44.922;31.25
1553640587;45.41;19.043;32.227;38.574;41.016
1553640587;33.691;31.738;41.992;32.227;40.527
1553640587;28.32;42.969;40.527;24.414;36.133
1553640587;39.062;38.574;38.086;32.715;30.273
1553640587;62.988;20.996;33.691;43.457;26.367
1553640587;57.617;14.648;29.297;35.156;33.691
1553640587;41.992;32.227;41.504;24.902;36.621
1553640587;34.18;41.504;41.016;28.809;17.09
1553640587;25.391;38.086;32.715;27.832;8.789
1553640587;32.715;35.156;23.926;18.555;18.066
1553640587;59.57;27.832;25.391;38.574;25.391
1553640587;82.031;27.832;30.273;39.551;23.926
1553640587;58.594;24.414;33.691;25.391;22.461
1553640587;37.598;9.766;33.203;35.156;25.391
1553640587;42.969;8.301;30.762;46.387;32.227
1553640587;46.387;12.695;40.527;40.527;37.109
1553640587;35.156;25.391;36.133;47.363;34.668
1553640587;34.668;24.902;24.414;36.621;31.738
1553640587;41.992;16.602;22.461;21.484;36.133
1553640587;42.48;44.922;25.879;10.742;48.34
1553640587;48.828;41.992;25.879;18.555;42.48
1553640587;67.871;20.02;24.902;32.715;38.086
1553640587;64.941;19.531;37.598;53.223;35.156
1553640587;50.293;20.02;48.34;57.617;40.527
1553640587;54.688;21.973;45.898;40.039;38.574
1553640587;50.293;44.922;39.062;11.23;13.672
1553640587;56.641;51.27;29.785;-13.672;9.277
1553640587;62.988;50.781;25.391;6.836;10.254
1553640587;45.898;46.875;29.297;32.715;5.859
1553640587;41.504;39.062;30.762;45.41;20.02
1553640587;41.016;55.664;27.344;32.715;32.715
1553640587;26.855;64.453;24.414;17.578;39.062
1553640587;26.855;70.312;21.484;15.625;30.273
1553640587;40.039;78.613;20.508;11.719;13.672
1553640587;48.828;68.359;18.066;-2.441;29.785
1553640587;33.691;73.73;18.066;2.93;44.922
1553640587;32.715;90.82;17.578;10.254;38.574
1553640587;44.922;95.215;18.066;8.301;35.645
1553640587;35.156;86.914;20.508;0;31.738
1553640587;30.273;82.52;12.207;-20.508;25.879
1553640587;41.504;102.539;6.836;-21.973;24.902
1553640587;70.312;114.258;15.137;-0.977;26.855
1553640587;79.102;115.234;15.625;13.184;18.555
1553640587;73.73;106.445;15.137;17.09;17.578
1553640587;63.965;100.586;18.066;14.16;32.715
1553640587;79.59;104.004;21.484;22.949;44.922
1553640587;96.191;109.863;21.484;19.531;33.203
1553640587;68.359;118.164;10.254;-13.672;21.973
1553640587;64.453;100.586;7.324;-2.441;34.668
1553640587;85.938;83.984;14.648;27.344;42.48
1553640587;95.215;91.309;13.184;26.367;40.527
1553640587;118.652;114.746;4.883;35.645;35.156
1553640587;129.395;106.445;7.812;65.43;48.828
1553640587;127.93;104.492;10.742;62.5;58.105
1553640587;111.328;133.301;4.883;57.129;30.273
1553640587;92.773;131.348;3.418;60.547;25.391
1553640587;85.449;118.652;2.441;50.781;53.223
1553640587;91.797;109.375;1.953;56.641;68.359
1553640587;95.215;97.168;6.348;47.852;62.5
1553640587;83.496;87.402;10.742;39.551;55.176
1553640587;84.961;81.055;12.695;44.434;54.688
1553640587;111.816;72.754;15.625;33.203;47.852
1553640587;118.652;69.336;15.625;46.387;38.086
1553640587;122.559;62.5;16.602;54.688;29.785
1553640587;120.117;53.711;15.625;54.688;28.809
1553640587;88.379;52.734;20.508;58.105;42.969
1553640587;75.195;47.363;30.273;42.48;54.199
1553640587;73.242;45.41;31.25;34.668;48.828
1553640587;66.406;49.316;30.273;43.457;49.805
1553640587;43.457;48.828;26.855;53.223;61.523
1553640587;41.504;43.457;27.344;67.383;67.383
1553640587;48.34;35.156;28.809;71.777;61.035
1553640587;54.688;34.668;28.32;53.223;62.012
1553640587;69.824;32.715;30.273;41.016;67.871
1553640587;59.57;26.855;35.156;41.504;68.359
1553640587;47.852;24.414;38.574;49.316;62.012
1553640587;54.199;22.949;38.086;61.035;51.758
1553640587;47.852;21.484;37.109;64.453;55.664
1553640587;41.504;17.09;34.668;68.359;56.152
1553640587;53.711;15.625;33.691;69.336;43.457
1553640587;54.688;15.625;37.598;55.176;37.598
1553640587;52.734;8.301;34.18;18.066;43.945
1553640587;44.434;11.719;30.762;27.832;47.852
1553640587;43.945;20.508;35.156;43.457;44.434
1553640587;47.852;19.531;32.715;30.273;42.969
1553640587;30.762;15.137;34.668;28.32;36.621
1553640587;16.113;9.766;40.527;49.805;32.715
1553640587;33.691;8.789;41.992;41.992;44.922
1553640587;21.973;9.766;42.48;6.836;48.34
1553640587;12.695;9.766;41.992;9.766;41.504
1553640587;23.438;11.23;42.48;32.227;41.992
1553640587;10.742;13.184;41.504;37.109;45.41
1553640587;0.488;11.23;40.527;39.551;40.527
1553640587;-7.812;7.812;41.016;49.316;31.738
1553640587;-15.625;8.789;39.551;52.246;24.902
1553640587;-23.438;8.789;37.598;49.316;31.738
1553640587;-12.695;10.742;35.645;26.367;39.551
1553640587;10.254;12.695;32.715;12.207;32.715
1553640587;21.973;9.766;31.738;48.34;25.879
1553640587;22.949;6.836;30.273;49.805;29.297
1553640587;5.859;8.789;29.297;14.16;41.504
1553640587;-33.691;7.324;31.25;28.32;37.598
1553640587;-46.875;4.883;31.738;40.527;32.715
1553640587;-37.598;2.441;33.203;24.902;35.156
1553640587;-26.855;3.418;34.18;16.113;32.227
1553640587;-14.16;8.301;35.645;24.414;23.438
1553640587;-10.742;8.789;34.668;33.691;19.531
1553640587;-2.93;9.766;33.203;25.391;22.461
1553640587;14.16;14.648;36.133;29.785;30.273
1553640587;-3.906;17.578;38.574;43.945;32.227
1553640587;-8.789;16.602;36.621;43.945;23.438
1553640587;2.441;14.16;35.645;47.363;24.902
1553640587;-0.488;16.113;35.156;49.805;28.32
1553640587;-4.395;20.02;38.086;45.898;26.367
1553640587;-6.348;17.578;39.062;33.203;22.949
1553640587;-18.066;13.672;36.133;23.926;20.996
1553640587;-21.484;15.625;38.086;24.902;26.367
1553640587;-18.555;18.555;41.504;35.645;31.738
1553640587;-29.785;23.438;40.527;45.898;26.367
1553640587;-25.391;22.461;38.574;37.598;25.879
1553640587;-4.883;19.043;37.598;27.344;23.926
1553640587;15.137;20.02;37.598;29.297;37.598
1553640587;11.23;18.555;40.039;37.109;51.27
1553640587;-1.953;20.996;40.039;38.574;41.504
1553640587;10.742;29.297;39.062;77.637;35.645
1553640587;10.742;30.762;39.062;90.82;29.785
1553640587;-21.973;34.18;39.551;52.246;31.738
1553640587;-36.133;36.621;35.156;19.043;35.645
1553640587;-22.461;33.691;33.203;-1.465;28.809
1553640587;-15.625;35.156;32.715;0.488;29.297
1553640587;5.371;39.551;33.691;5.371;34.668
1553640587;28.32;40.527;35.156;4.395;32.227
1553640587;17.09;40.527;34.18;4.395;32.715
1553640587;2.93;42.48;34.18;20.996;38.086
1553640587;2.93;41.992;28.809;41.504;44.434
1553640587;0;39.062;33.691;58.594;42.48
1553640587;-9.277;37.109;39.551;29.297;35.645
1553640587;-6.348;40.039;36.133;18.555;33.203
1553640587;8.301;42.969;34.18;40.527;44.434
1553640587;9.277;42.48;33.203;25.879;46.875
1553640587;23.438;41.992;35.156;36.133;40.527
1553640587;44.434;39.551;31.738;43.945;42.969
1553640587;25.391;37.109;31.738;38.574;55.176
1553640587;4.395;40.527;32.715;41.016;54.199
1553640587;-2.93;41.504;32.715;40.039;41.504
1553640587;28.32;40.527;33.691;31.738;43.457
1553640587;49.316;45.41;30.762;40.527;40.039
1553640587;28.809;45.41;33.203;64.453;34.668
1553640587;34.18;41.016;36.133;53.223;33.203
1553640588;30.273;38.574;38.086;44.922;38.086
1553640588;20.02;37.598;38.574;71.777;43.945
1553640588;18.555;40.039;35.645;62.5;50.293
1553640588;30.762;39.062;33.691;18.066;49.316
1553640588;25.879;38.574;34.18;4.395;41.016
1553640588;14.648;38.086;35.156;4.883;39.551
1553640588;24.414;36.133;33.691;17.578;41.992
1553640588;30.762;36.133;33.203;33.691;40.527
1553640588;19.043;36.621;31.738;49.805;30.273
1553640588;23.926;33.691;30.762;51.758;32.227
1553640588;38.086;35.645;31.25;63.965;36.621
1553640588;45.41;38.086;33.203;65.43;41.016
1553640588;12.207;34.18;33.691;33.203;34.668
1553640588;3.418;35.645;33.203;31.25;28.809
1553640588;41.504;39.062;35.645;29.297;38.574
1553640588;33.203;38.574;34.18;7.324;40.039
1553640588;34.668;39.551;34.18;27.344;35.156
1553640588;52.734;36.133;37.598;71.289;32.715
1553640588;53.711;35.645;35.645;50.781;33.691
1553640588;36.133;36.621;33.691;25.879;37.109
1553640588;36.621;35.156;34.668;33.203;31.25
1553640588;41.992;41.504;34.668;23.926;22.949
1553640588;25.391;46.387;34.18;16.602;23.926
1553640588;29.297;43.457;33.203;15.137;27.832
1553640588;16.113;37.109;31.25;17.578;27.344
1553640588;-1.953;32.715;36.133;35.156;17.09
1553640588;10.254;36.621;31.25;20.508;15.625
1553640588;21.973;37.109;27.344;36.621;23.926
1553640588;27.344;39.062;31.738;47.852;28.809
1553640588;27.832;36.621;29.785;31.25;28.32
1553640588;39.551;33.203;34.18;40.527;24.902
1553640588;35.645;38.574;33.203;21.973;23.438
1553640588;14.16;39.062;33.203;24.902;33.203
1553640588;26.855;38.574;35.156;50.781;33.203
1553640588;47.363;40.527;28.32;68.359;24.902
1553640588;35.645;39.551;28.32;23.438;29.297
1553640588;17.578;37.109;33.691;17.578;39.062
1553640588;11.719;38.574;35.156;22.949;44.922
1553640588;36.133;40.039;35.156;32.715;33.691
1553640588;31.738;41.992;35.156;38.086;30.273
1553640588;12.207;44.434;29.785;12.695;44.434
1553640588;17.09;44.434;35.645;24.902;38.574
1553640588;8.789;41.016;37.598;25.391;25.879
1553640588;14.16;43.945;34.668;30.762;35.645
1553640588;44.922;50.781;34.668;28.32;37.109
1553640588;39.551;52.246;38.086;35.156;27.832
1553640588;-0.488;50.781;40.039;43.945;28.32
1553640588;-3.906;53.223;36.133;11.719;38.086
1553640588;29.785;59.082;31.25;12.695;24.902
1553640588;44.922;60.059;25.879;36.133;30.273
1553640588;30.273;60.547;32.715;39.551;41.504
1553640588;15.137;58.594;43.457;26.367;17.09
1553640588;12.207;54.688;45.41;13.184;9.766
1553640588;11.23;54.199;44.922;-0.977;14.648
1553640588;16.602;53.223;45.41;-31.738;3.906
1553640588;32.715;65.43;42.48;-16.113;11.23
1553640588;0.488;69.824;39.551;5.371;23.438
1553640588;-35.645;61.035;44.922;-16.113;6.348
1553640588;-18.066;57.129;50.781;-10.254;2.93
1553640588;-26.855;60.547;50.781;3.906;-5.859
1553640588;-20.996;61.035;50.781;-15.137;-20.508
1553640588;2.441;57.129;59.082;2.441;-11.719
1553640588;-0.977;57.129;62.012;-3.418;-17.09
1553640588;-22.949;57.129;54.688;-31.25;-37.598
1553640588;-18.066;55.176;52.734;-21.973;-31.738
1553640588;13.184;53.223;53.711;-9.766;-15.625
1553640588;21.973;54.688;51.758;-6.836;-14.648
1553640588;-2.441;52.734;58.105;2.441;-34.18
1553640588;1.465;41.016;60.059;10.254;-26.367
1553640588;11.719;31.25;64.453;10.254;-6.348
1553640588;20.02;29.785;56.641;14.648;-13.672
1553640588;49.805;27.832;42.48;7.812;0
1553640588;34.668;20.996;45.898;15.137;11.719
1553640588;59.082;17.09;47.363;32.227;17.09
1553640588;85.449;5.859;46.875;63.965;42.969
1553640588;70.801;-10.742;53.711;90.332;62.012
1553640588;98.145;-15.137;47.852;85.449;72.266
1553640588;116.211;-14.16;35.156;120.117;84.961
1553640588;168.945;-17.09;36.133;146.973;111.328
1553640588;199.219;-24.414;41.504;131.836;145.02
1553640588;171.875;-29.785;42.969;150.391;143.066
1553640588;170.898;-33.691;45.898;183.594;124.023
1553640588;187.012;-39.062;48.828;174.805;125.977
1553640588;183.594;-35.645;47.363;164.551;148.438
1553640588;199.219;-31.25;45.41;212.402;163.086
1553640588;218.262;-32.715;48.828;218.75;155.762
1553640588;205.078;-29.785;44.434;189.453;164.062
1553640588;196.289;-25.391;41.016;198.242;181.152
1553640588;193.848;-22.949;44.434;196.777;178.223
1553640588;190.43;-22.461;42.48;183.594;167.969
1553640588;208.496;-22.949;42.48;160.156;180.176
1553640588;229.492;-15.137;37.598;157.715;183.105
1553640588;226.074;-9.277;37.109;209.473;164.062
1553640588;203.613;-8.301;39.551;225.098;146.484
1553640588;199.707;-4.395;36.621;155.762;155.762
1553640588;203.125;-2.441;37.109;114.258;169.434
1553640588;182.129;-1.465;37.109;131.836;166.992
1553640588;146.973;1.465;35.645;151.855;157.227
1553640588;124.023;-1.953;35.645;151.367;157.715
1553640588;123.535;-1.953;38.086;145.508;158.203
1553640588;133.789;-0.488;38.086;116.699;155.273
1553640588;144.531;5.371;33.203;84.473;142.578
1553640588;121.094;8.789;35.156;115.234;122.559
1553640588;134.766;2.441;39.551;172.363;122.07
1553640588;132.324;15.625;37.598;146.973;108.887
1553640588;86.914;24.414;37.598;83.984;96.191
1553640588;104.004;15.137;36.621;104.492;96.191
1553640588;123.535;20.996;36.621;96.191;78.613
1553640588;107.422;25.391;37.598;69.824;77.637
1553640588;104.98;24.902;38.574;83.496;96.191
1553640588;94.727;23.926;42.969;98.145;90.82
1553640588;96.68;23.926;42.969;89.844;85.449
1553640588;110.84;31.25;39.062;70.801;80.078
1553640588;90.82;20.996;40.527;45.898;88.867
1553640588;112.305;30.273;37.598;15.625;73.73
1553640588;104.98;47.363;38.086;56.152;40.039
1553640588;61.035;32.715;44.922;77.148;49.805
1553640588;29.785;21.484;47.363;81.055;64.941
1553640588;63.965;32.227;46.875;98.145;54.688
1553640588;90.82;41.016;40.527;87.891;32.715
1553640588;18.555;21.973;41.992;73.242;49.805
1553640588;41.016;25.391;44.922;28.32;59.57
1553640588;65.918;33.203;42.969;12.207;48.34
1553640588;56.641;30.762;40.527;34.668;38.574
1553640588;87.402;41.504;38.574;52.246;27.344
1553640588;69.336;41.504;39.551;20.996;25.391
1553640588;48.828;37.598;33.691;27.832;29.297
1553640588;51.758;39.551;35.645;59.57;29.297
1553640588;102.051;41.504;40.527;39.551;22.461
1553640588;91.309;38.574;41.504;16.113;24.902
1553640588;32.227;25.391;44.434;13.672;44.434
1553640588;48.34;20.996;42.48;47.852;52.246
1553640588;81.055;28.32;40.527;56.152;31.25
1553640588;20.996;18.066;46.875;25.391;48.828
1553640588;20.508;20.508;47.363;23.438;63.477
1553640588;113.77;41.016;40.527;33.203;30.273
1553640588;102.539;45.41;36.133;29.785;22.461
1553640588;25.879;28.32;42.969;64.941;43.945
1553640588;74.219;35.645;45.898;95.703;39.551
1553640588;91.309;45.898;38.086;70.312;36.621
1553640588;38.574;35.156;38.086;52.246;42.969
1553640588;84.473;47.852;37.598;68.359;44.922
1553640588;60.547;43.945;31.738;38.086;72.754
1553640588;28.809;31.25;35.156;2.441;81.543
1553640588;78.125;39.062;38.574;39.551;60.547
1553640588;114.746;44.434;38.086;76.66;56.641
1553640588;130.371;53.223;34.668;103.027;57.617
1553640588;56.641;55.664;37.598;78.613;63.965
1553640588;72.754;57.129;37.109;40.039;53.711
1553640588;97.168;43.945;42.48;57.617;50.293
1553640588;53.223;31.738;46.387;69.336;53.711
1553640588;39.062;35.645;38.086;56.641;69.336
1553640588;87.891;43.945;37.598;57.617;63.477
1553640588;114.746;47.363;39.551;64.941;19.043
1553640588;15.625;40.527;40.527;-5.371;37.109
1553640588;-7.812;34.18;39.062;-19.531;64.941
1553640588;78.613;46.875;34.18;75.195;34.18
1553640588;73.242;47.852;44.434;97.168;10.254
1553640588;39.062;38.086;45.898;69.336;36.133
1553640588;67.871;33.203;40.527;63.477;33.691
1553640588;110.84;33.691;37.109;34.668;26.855
1553640588;47.363;42.48;37.109;38.086;32.227
1553640588;1.465;36.621;41.992;51.758;25.391
1553640588;40.527;37.109;39.062;54.199;38.574
1553640588;78.613;49.805;35.645;38.574;34.668
1553640588;42.48;27.832;37.109;33.691;53.223
1553640588;84.961;44.434;33.691;67.871;31.738
1553640588;33.691;49.805;37.109;26.855;26.367
1553640588;-7.812;29.785;42.48;20.508;48.34
1553640588;84.473;47.852;37.598;26.367;35.156
1553640588;99.121;55.664;37.109;8.789;34.18
1553640588;26.367;39.551;43.945;46.387;45.41
1553640588;45.41;40.527;43.945;75.684;47.852
1553640588;49.316;52.734;35.156;87.891;41.992
1553640588;55.176;45.41;44.922;78.125;31.25
1553640588;112.793;51.27;38.086;39.062;36.621
1553640588;82.52;62.988;32.227;48.34;40.527
1553640588;20.996;47.852;47.852;62.5;37.598
1553640588;69.824;53.711;41.504;22.949;26.367
1553640588;31.25;47.852;36.133;48.828;38.086
1553640588;-4.395;29.785;41.504;80.566;57.617
1553640588;70.801;51.27;43.457;30.273;39.551
1553640588;31.25;46.387;37.109;5.859;38.086
1553640588;4.395;25.879;36.133;66.895;46.875
1553640588;60.547;47.363;40.527;80.566;33.203
1553640588;50.781;62.5;33.691;37.598;41.504
1553640588;35.156;45.41;40.527;56.641;71.289
1553640588;48.828;38.574;43.457;65.918;55.176
1553640588;101.562;47.363;33.203;27.832;18.555
1553640588;75.195;55.176;29.297;9.766;20.996
1553640588;11.23;42.48;36.133;21.973;47.363
1553640588;48.34;35.645;35.156;49.805;41.992
1553640588;29.297;35.645;38.086;69.336;32.227
1553640588;7.812;25.879;44.922;81.055;42.969
1553640588;98.633;33.203;36.133;63.477;50.293
1553640588;184.57;63.965;24.902;35.156;17.578
1553640588;78.613;52.246;32.715;74.219;24.902
1553640588;18.555;41.504;38.574;98.145;32.715
1553640588;56.641;61.035;33.691;52.246;32.227
1553640588;43.945;57.617;31.738;13.184;31.25
1553640588;30.273;28.809;37.109;7.324;28.809
1553640588;33.203;29.297;39.551;23.438;48.828
1553640588;36.621;44.922;41.016;20.02;53.223
1553640588;53.711;42.48;35.156;17.578;51.27
1553640588;67.383;44.922;37.598;60.547;33.691
1553640588;59.57;46.387;41.992;86.426;33.203
1553640588;49.316;43.457;36.621;89.355;30.762
1553640588;54.688;41.504;21.484;7.812;59.082
1553640588;109.375;45.898;24.902;18.066;45.898
1553640588;37.598;41.992;42.48;74.219;29.785
1553640588;38.086;27.344;41.504;78.613;47.852
1553640588;64.941;40.039;36.133;86.426;54.688
1553640588;58.105;56.152;35.156;50.293;59.082
1553640588;132.324;46.875;37.109;40.039;16.602
1553640588;63.477;39.551;34.18;52.246;18.555
1553640588;26.855;39.551;37.109;34.18;38.086
1553640588;83.984;40.527;35.156;52.246;33.691
1553640588;50.293;44.434;31.25;55.176;26.367
1553640588;6.836;27.344;39.062;-5.371;37.598
1553640588;86.426;29.297;43.945;31.738;24.902
1553640588;77.637;42.969;43.945;69.824;18.066
1553640588;-2.441;28.809;37.598;37.109;53.711
1553640588;47.852;41.504;35.645;35.645;34.18
1553640588;108.887;51.27;42.48;58.105;27.832
1553640588;115.234;51.27;39.062;62.5;18.555
1553640588;80.078;43.457;34.18;41.992;24.414
1553640588;10.254;28.809;34.18;35.156;42.48
1553640588;33.691;33.691;44.922;72.266;16.602
1553640588;119.629;44.434;41.016;42.969;30.273
1553640588;75.684;31.25;31.738;47.852;53.711
1553640588;6.836;26.367;39.062;55.176;42.969
1553640588;10.254;29.297;42.48;35.645;55.664
1553640588;95.703;31.738;41.016;63.477;22.949
1553640588;62.012;30.762;35.645;51.27;4.395
1553640588;71.777;39.551;37.598;-1.465;35.645
1553640588;142.09;46.387;38.574;41.016;14.648
1553640588;61.523;31.738;38.086;70.312;22.949
1553640588;58.594;27.344;42.48;56.152;34.18
1553640588;53.223;33.203;39.062;54.688;28.809
1553640588;18.555;31.25;33.203;43.945;53.223
1553640588;89.844;45.898;37.598;44.922;36.133
1553640588;88.867;41.992;41.504;51.758;24.902
1553640588;44.922;30.762;41.504;54.199;29.297
1553640588;37.598;26.855;43.945;55.664;42.969
1553640588;63.965;38.574;45.898;41.992;41.992
1553640588;96.68;41.992;42.48;78.125;38.574
1553640588;77.637;29.785;42.969;112.305;33.691
1553640588;49.805;24.902;51.27;71.289;27.832
1553640588;67.871;42.48;43.945;20.02;26.855
1553640588;65.918;43.945;34.18;14.648;36.133
1553640588;1.953;20.02;42.969;27.832;41.504
1553640588;-11.23;19.531;43.945;13.184;38.574
1553640588;44.434;35.645;36.621;3.418;31.25
1553640588;53.223;45.41;38.086;9.766;27.832
1553640588;30.762;40.527;45.898;35.645;36.133
1553640588;47.852;41.016;47.363;69.824;25.879
1553640589;24.414;39.062;41.016;30.273;15.625
1553640589;43.457;29.785;42.969;21.484;25.391
1553640589;98.145;42.969;50.293;78.613;21.973
1553640589;7.324;30.762;43.457;54.199;47.363
1553640589;-1.465;17.578;43.945;24.902;42.969
1553640589;90.332;30.273;39.062;6.348;29.297
1553640589;87.402;37.109;36.621;25.879;34.18
1553640589;70.801;46.875;40.039;46.875;20.996
1553640589;55.664;35.156;35.645;30.762;17.09
1553640589;10.254;29.297;34.18;28.809;47.852
1553640589;35.156;34.668;44.922;51.758;47.363
1553640589;77.148;38.086;46.875;47.852;25.879
1553640589;58.105;41.016;34.668;45.898;20.02
1553640589;69.824;40.039;29.785;39.551;26.367
1553640589;79.59;34.18;30.762;19.043;29.785
1553640589;32.715;24.902;36.621;61.523;36.621
1553640589;27.832;34.668;37.109;60.547;30.273
1553640589;53.223;34.18;39.062;32.715;10.742
1553640589;46.875;32.227;35.645;54.199;10.254
1553640589;-6.348;29.297;34.668;30.273;42.48
1553640589;72.754;30.273;35.645;36.133;30.762
1553640589;102.051;39.551;36.133;76.66;1.953
1553640589;38.574;33.691;33.691;57.129;28.809
1553640589;73.73;40.039;28.32;20.02;43.457
1553640589;103.516;47.363;30.273;26.367;18.555
1553640589;40.039;37.109;41.992;48.828;12.207
1553640589;5.371;33.203;42.48;42.969;32.227
1553640589;79.59;45.898;35.156;39.551;24.902
1553640589;77.148;40.527;35.156;19.531;24.414
1553640589;29.297;35.156;39.551;34.18;20.02
1553640589;39.062;34.18;45.898;53.711;0
1553640589;44.434;36.621;39.551;45.898;8.301
1553640589;59.082;49.316;29.785;21.973;9.277
1553640589;32.227;38.574;32.715;11.23;11.719
1553640589;36.621;34.668;41.504;40.527;19.043
1553640589;76.172;44.434;39.551;60.547;6.836
1553640589;28.809;35.645;36.621;51.758;16.602
1553640589;6.348;25.879;37.109;34.18;13.672
1553640589;57.617;32.715;32.715;44.434;-4.883
1553640589;47.363;33.203;34.668;44.434;12.695
1553640589;25.879;37.109;39.551;24.902;12.207
1553640589;-21.484;30.273;41.016;24.902;20.996
1553640589;-21.484;19.531;40.527;36.133;30.273
1553640589;36.133;28.32;35.645;51.27;16.602
1553640589;79.59;40.039;34.18;43.457;6.348
1553640589;38.574;28.809;34.668;18.066;19.043
1553640589;2.93;28.32;34.668;3.418;27.344
1553640589;44.922;43.945;32.715;17.09;12.207
1553640589;52.246;43.457;36.621;34.668;10.254
1553640589;1.465;38.574;35.156;32.227;20.996
1553640589;-30.762;32.227;31.25;21.973;28.32
1553640589;31.738;34.18;35.645;28.809;26.855
1553640589;51.758;46.387;36.133;20.02;27.832
1553640589;42.969;41.504;33.203;-6.836;35.645
1553640589;43.945;43.457;34.18;6.348;28.809
1553640589;25.879;40.527;36.621;29.297;18.066
1553640589;27.832;31.738;35.645;55.176;15.625
1553640589;5.371;32.227;35.156;64.941;27.344
1553640589;-9.277;32.715;32.227;17.09;37.598
1553640589;34.668;39.062;31.25;0.977;29.785
1553640589;13.184;35.156;32.227;19.531;24.414
1553640589;5.371;24.414;33.203;21.484;34.18
1553640589;51.27;38.574;29.785;15.625;22.461
1553640589;31.738;43.945;30.273;28.809;11.719
1553640589;21.484;42.48;32.715;48.34;23.438
1553640589;28.32;37.109;26.855;11.719;36.133
1553640589;13.672;31.25;31.738;13.184;32.715
1553640589;29.297;42.48;31.25;22.461;19.531
1553640589;36.133;42.969;25.879;20.02;15.625
1553640589;59.57;44.922;28.32;34.668;16.113
1553640589;29.785;39.062;31.738;23.438;24.414
1553640589;-21.973;29.785;35.645;37.109;43.457
1553640589;63.965;39.551;33.203;45.41;25.879
1553640589;39.062;39.062;29.785;32.227;9.766
1553640589;4.883;27.344;37.598;90.332;34.668
1553640589;112.305;36.621;37.109;99.121;28.809
1553640589;38.574;34.18;34.668;44.434;38.086
1553640589;-23.926;34.668;30.273;-4.395;42.48
1553640589;25.879;39.062;23.926;-26.855;29.297
1553640589;-10.742;35.156;36.621;-4.883;24.902
1553640589;-54.199;20.02;46.387;2.441;30.762
1553640589;-8.789;16.113;33.691;17.09;60.547
1553640589;61.523;33.203;34.18;59.57;64.453
1553640589;64.941;35.645;34.668;62.012;44.922
1553640589;45.898;40.039;26.367;41.016;33.203
1553640589;84.961;36.621;35.645;58.594;43.457
1553640589;61.035;30.762;40.527;30.762;44.922
1553640589;-56.641;23.926;37.598;22.949;68.848
1553640589;-29.297;26.855;39.551;84.473;58.105
1553640589;-0.977;27.832;37.109;25.879;31.25
1553640589;32.227;31.738;27.832;-51.27;36.133
1553640589;32.715;31.25;25.391;30.273;28.32
1553640589;-98.145;16.602;32.227;15.137;62.988
1553640589;-34.668;22.461;40.527;-18.066;49.805
1553640589;-36.133;4.395;52.734;45.898;41.504
1553640589;-8.789;11.23;55.176;65.43;46.875
1553640589;182.617;52.734;27.344;56.152;17.578
1553640589;238.281;67.871;13.184;46.387;-5.859
1553640589;46.387;39.551;39.551;41.504;13.184
1553640589;-72.754;11.23;47.363;10.254;63.477
1553640589;64.453;34.668;38.086;-35.156;59.57
1553640589;72.266;44.434;26.367;8.301;61.035
1553640589;68.359;43.945;34.668;104.004;46.387
1553640589;105.957;49.316;51.758;108.887;21.973
1553640589;38.574;38.086;36.133;46.875;63.477
1553640589;37.598;31.25;27.344;-9.277;86.914
1553640589;24.902;37.109;37.598;74.219;54.688
1553640589;56.152;48.828;41.016;56.152;20.996
1553640589;53.711;57.617;36.621;-24.414;37.598
1553640589;16.602;54.199;35.156;-11.23;73.242
1553640589;4.883;54.199;35.645;-13.672;43.945
1553640589;-44.922;53.711;39.551;39.062;26.855
1553640589;-10.742;31.738;48.34;71.777;48.828
1553640589;134.277;52.246;31.25;91.797;44.922
1553640589;154.297;82.031;23.438;36.621;20.508
1553640589;62.5;58.105;27.832;58.594;33.691
1553640589;102.051;55.664;31.738;126.465;27.832
1553640589;76.66;60.059;37.598;102.539;25.391
1553640589;-0.488;47.852;43.457;78.125;43.457
1553640589;23.926;43.945;42.48;-3.418;47.852
1553640589;66.895;46.387;30.273;-12.207;52.246
1553640589;47.852;53.711;34.18;54.199;51.758
1553640589;-1.465;51.27;33.691;25.391;71.289
1553640589;-22.461;34.668;43.457;8.789;48.828
1553640589;53.711;33.691;47.363;66.406;8.789
1553640589;32.227;41.504;34.18;80.566;41.504
1553640589;23.926;42.48;36.621;49.805;52.734
1553640589;121.582;60.547;30.762;63.965;38.086
1553640589;88.867;52.734;33.203;54.199;27.344
1553640589;35.645;48.34;30.273;57.129;34.668
1553640589;-0.488;37.109;35.156;64.941;39.062
1553640589;13.184;45.898;37.109;60.059;19.531
1553640589;-10.742;20.996;42.969;29.785;65.918
1553640589;41.992;14.648;43.457;41.992;84.961
1553640589;148.438;64.453;27.832;82.52;12.695
1553640589;58.105;55.664;28.809;75.195;26.367
1553640589;9.277;41.016;26.367;61.523;47.852
1553640589;38.086;41.992;27.832;41.016;50.781
1553640589;88.379;43.457;36.133;48.34;46.875
1553640589;97.656;47.363;35.156;20.996;38.574
1553640589;-27.832;38.574;33.691;20.508;46.875
1553640589;-114.746;6.836;39.062;59.57;79.59
1553640589;40.527;25.391;42.48;53.711;68.359
1553640589;144.043;56.152;33.691;36.133;37.598
1553640589;47.363;44.922;35.645;42.969;38.086
1553640589;55.176;36.621;36.133;15.137;50.781
1553640589;75.684;31.738;28.32;31.738;68.848
1553640589;64.453;45.41;27.344;76.172;53.711
1553640589;59.57;42.969;35.156;54.199;43.945
1553640589;38.574;26.855;32.227;51.758;61.035
1553640589;-0.488;32.227;27.344;67.383;53.711
1553640589;14.648;33.203;36.621;58.594;55.176
1553640589;89.844;44.434;28.32;52.734;19.531
1553640589;80.566;48.828;17.09;30.762;14.648
1553640589;2.441;28.32;35.645;3.418;61.035
1553640589;41.016;36.133;44.434;12.695;46.875
1553640589;65.43;42.969;31.738;22.461;48.34
1553640589;34.18;36.621;27.344;58.105;55.176
1553640589;62.988;35.645;37.109;81.055;44.922
1553640589;16.113;33.203;39.062;51.758;45.41
1553640589;7.812;34.668;28.32;49.805;40.039
1553640589;143.066;53.223;20.508;34.18;22.461
1553640589;102.051;67.383;12.207;57.617;47.363
1553640589;23.438;45.898;20.02;51.758;81.543
1553640589;94.238;53.223;24.414;22.461;46.875
1553640589;46.875;44.434;28.32;68.359;33.691
1553640589;72.754;45.41;25.879;59.57;48.828
1553640589;85.938;55.176;23.926;28.809;44.434
1553640589;45.898;47.852;28.809;61.523;41.016
1553640589;-69.824;33.691;35.156;93.262;68.359
1553640589;-27.832;19.531;32.227;71.289;62.988
1553640589;151.367;44.434;21.973;21.973;32.227
1553640589;95.215;56.641;21.973;23.926;22.461
1553640589;40.039;41.992;27.832;40.527;21.484
1553640589;67.871;38.574;26.855;45.898;43.457
1553640589;31.25;29.785;26.855;32.715;60.547
1553640589;30.273;37.598;35.156;19.531;46.875
1553640589;13.672;42.48;29.785;23.926;46.875
1553640589;16.113;30.273;29.297;33.691;55.176
1553640589;64.453;37.109;31.25;27.832;31.738
1553640589;49.805;36.133;27.832;42.969;36.621
1553640589;83.496;43.945;23.438;44.922;19.043
1553640589;37.598;47.363;26.367;49.316;9.766
1553640589;45.41;38.086;34.668;76.172;33.691
1553640589;135.254;48.828;33.203;60.547;29.297
1553640589;64.941;40.039;30.762;25.391;42.969
1553640589;12.207;29.785;32.715;33.203;64.453
1553640589;78.613;46.875;27.344;31.738;28.32
1553640589;58.105;53.223;20.02;9.766;-8.789
1553640589;-27.344;33.203;24.902;24.414;24.414
1553640589;-42.48;22.461;38.086;55.176;45.41
1553640589;88.867;39.062;25.879;28.32;9.766
1553640589;99.609;49.805;19.531;20.508;20.02
1553640589;19.531;22.461;35.156;34.668;70.801
1553640589;83.496;31.25;38.574;37.598;44.922
1553640589;73.73;51.758;28.32;-13.184;25.879
1553640589;47.852;36.621;21.973;-7.324;43.457
1553640589;37.109;33.691;32.227;44.434;27.344
1553640589;-14.648;27.832;40.527;28.32;35.645
1553640589;55.176;31.738;39.551;43.945;29.785
1553640589;90.82;41.992;26.855;37.109;9.277
1553640589;11.23;32.227;29.785;37.598;46.387
1553640589;-10.254;23.926;39.062;57.617;59.57
1553640589;71.777;41.992;33.691;38.086;5.859
1553640589;104.004;46.875;29.785;42.969;4.883
1553640589;14.648;31.738;31.25;25.879;35.156
1553640589;-8.789;23.438;33.203;-19.043;48.828
1553640589;67.871;27.344;36.133;19.531;42.48
1553640589;73.73;33.691;40.039;76.172;27.344
1553640589;66.895;38.574;34.668;53.223;34.18
1553640589;80.566;38.086;38.086;66.406;27.832
1553640589;31.25;30.762;41.504;102.539;37.598
1553640589;-18.555;24.902;37.109;59.082;50.293
1553640589;41.504;33.203;21.973;7.812;42.969
1553640589;95.215;35.645;23.926;51.27;41.992
1553640589;22.949;27.832;39.062;39.551;36.621
1553640589;-24.414;21.484;40.039;15.625;63.965
1553640589;82.52;36.133;37.109;44.922;39.551
1553640589;84.473;36.621;33.203;42.969;22.461
1553640589;16.113;30.762;31.738;50.293;37.109
1553640589;47.852;38.086;33.203;68.848;27.344
1553640589;68.848;31.738;37.598;70.312;49.805
1553640589;48.34;33.691;36.621;34.668;54.199
1553640589;41.504;33.691;26.855;8.789;16.602
1553640589;-17.09;16.113;37.598;56.641;48.828
1553640589;-5.859;9.277;41.992;56.641;79.102
1553640589;100.098;31.25;30.762;33.203;27.344
1553640589;107.422;46.387;32.715;41.016;14.648
1553640589;75.684;36.621;33.203;68.848;39.062
1553640589;87.402;33.691;31.738;118.652;40.527
1553640589;58.594;38.086;25.879;100.098;62.5
1553640589;14.16;32.715;29.297;18.066;65.918
1553640589;34.668;27.344;35.156;-3.418;40.527
1553640589;29.785;28.809;35.156;28.32;28.32
1553640589;-19.043;18.555;41.016;10.254;22.461
1553640589;0.977;15.625;42.48;-4.883;30.762
1553640589;20.02;16.602;37.598;17.578;41.016
1553640589;24.414;21.484;34.18;23.438;25.879
1553640589;29.785;25.391;38.086;41.992;20.02
1553640589;40.527;28.32;38.086;46.875;12.695
1553640589;7.812;25.391;31.25;12.207;13.184
1553640589;4.883;21.484;37.598;48.34;36.621
1553640589;66.406;25.391;40.039;77.637;13.672
1553640589;62.012;30.273;34.668;33.203;-0.488
1553640589;29.785;30.762;39.551;42.969;18.555
1553640589;22.461;24.414;45.898;78.613;33.691
1553640589;29.297;26.367;37.109;57.617;21.973
1553640589;33.691;25.391;34.668;24.902;7.812
1553640589;10.742;22.461;41.016;12.207;31.25
1553640589;22.461;24.414;35.645;-4.395;27.832
1553640589;46.387;26.855;30.273;-2.93;10.742
1553640589;25.391;20.996;33.203;48.34;10.742
1553640589;13.672;20.02;33.691;57.129;18.066
1553640589;41.504;23.438;33.203;35.156;13.184
1553640589;58.105;28.32;34.18;41.992;16.113
1553640589;46.387;29.785;32.715;34.18;16.113
1553640590;23.438;26.367;34.18;15.625;9.277
1553640590;-40.527;19.531;37.109;9.766;35.645
1553640590;-9.277;20.02;33.203;10.254;43.945
1553640590;44.434;33.203;29.297;15.137;19.043
1553640590;35.156;33.203;35.156;39.062;10.742
1553640590;38.574;31.738;36.133;31.25;13.672
1553640590;2.93;30.273;32.715;10.254;26.367
1553640590;-6.348;26.855;34.18;23.438;18.066
1553640590;-3.906;25.391;36.621;22.461;8.789
1553640590;2.93;26.855;32.227;31.738;20.508
1553640590;50.293;33.203;35.156;46.387;11.719
1553640590;37.109;33.691;38.574;29.297;22.949
1553640590;39.551;34.668;37.598;47.363;25.879
1553640590;71.289;42.48;38.086;33.691;17.09
1553640590;27.344;34.668;39.062;20.508;31.738
1553640590;5.371;22.461;37.598;33.691;37.109
1553640590;44.922;26.367;34.18;38.574;12.207
1553640590;44.922;32.227;31.738;53.711;6.348
1553640590;10.254;33.691;32.715;31.738;12.207
1553640590;-11.719;30.273;34.668;11.23;18.066
1553640590;-3.906;28.809;34.18;13.184;24.902
1553640590;0.977;33.203;26.855;-0.977;26.367
1553640590;20.02;37.598;27.344;14.16;21.973
1553640590;40.039;38.086;30.273;45.41;25.391
1553640590;47.852;34.668;28.32;40.527;24.414
1553640590;18.066;30.762;31.25;50.781;27.344
1553640590;-0.977;29.785;34.18;45.898;36.133
1553640590;16.602;32.227;31.25;4.395;33.203
1553640590;13.184;30.273;31.25;-2.441;39.551
1553640590;33.691;31.25;30.762;24.414;29.785
1553640590;37.598;29.297;29.297;45.41;16.113
1553640590;31.25;29.785;32.227;31.738;22.949
1553640590;49.805;34.668;28.809;9.766;31.738
1553640590;18.066;28.809;29.297;40.039;29.297
1553640590;0;28.32;35.156;56.152;28.809
1553640590;40.039;36.621;28.809;33.691;22.949
1553640590;29.297;35.645;27.832;19.043;27.832
1553640590;11.23;31.25;35.156;12.207;40.039
1553640590;42.48;29.297;35.645;31.25;32.715
1553640590;55.664;35.156;31.738;25.879;27.344
1553640590;57.129;39.551;27.832;16.602;31.25
1553640590;48.828;38.086;27.832;22.461;35.645
1553640590;1.465;33.203;30.273;26.855;42.48
1553640590;4.883;32.227;26.367;-0.977;42.969
1553640590;8.301;32.715;26.855;-1.465;40.527
1553640590;9.766;32.227;34.668;30.762;40.527
1553640590;53.711;34.668;36.133;37.598;25.391
1553640590;37.598;35.645;31.738;26.367;20.996
1553640590;10.742;29.785;31.25;14.648;39.062
1553640590;20.996;28.809;29.785;12.695;47.852
1553640590;22.949;33.203;27.344;25.391;39.551
1553640590;9.766;25.879;29.785;41.992;34.18
1553640590;18.066;25.391;28.809;39.062;38.574
1553640590;50.293;37.109;27.344;45.898;33.203
1553640590;46.875;34.18;30.273;37.598;20.508
1553640590;45.898;33.203;34.668;27.344;19.531
1553640590;37.109;40.039;32.715;35.156;26.855
1553640590;24.414;35.156;33.691;37.598;31.25
1553640590;14.16;27.832;34.668;18.555;30.762
1553640590;13.672;27.344;33.203;9.766;21.484
1553640590;31.25;29.785;33.203;8.789;17.578
1553640590;42.48;31.25;30.762;24.902;21.973
1553640590;51.27;35.156;32.227;20.996;25.879
1553640590;21.973;32.227;30.762;2.441;29.785
1553640590;-21.484;24.414;32.227;9.766;36.133
1553640590;10.742;25.879;35.156;23.926;35.156
1553640590;58.594;31.738;29.785;22.949;35.156
1553640590;48.828;30.273;30.273;21.973;32.715
1553640590;11.719;20.02;34.668;35.156;29.297
1553640590;30.762;22.949;35.156;55.664;32.227
1553640590;50.781;26.367;32.715;44.434;38.574
1553640590;71.777;32.227;31.25;59.57;26.367
1553640590;80.566;35.645;33.691;70.801;15.137
1553640590;20.02;36.133;37.109;22.949;31.738
1553640590;-17.578;28.32;39.062;34.668;57.129
1553640590;51.27;29.297;33.203;36.133;45.898
1553640590;53.223;43.945;27.832;-8.301;18.066
1553640590;-53.711;16.602;34.668;15.625;46.875
1553640590;30.273;24.902;28.809;43.945;41.504
1553640590;69.824;54.199;23.926;24.414;17.578
1553640590;9.766;37.598;30.762;3.418;32.227
1553640590;33.691;30.762;33.691;-5.371;41.992
1553640590;52.246;29.297;30.762;1.465;36.133
1553640590;29.297;30.762;28.809;-13.184;36.133
1553640590;41.504;20.02;33.691;14.648;30.762
1553640590;41.504;30.273;32.227;22.949;24.414
1553640590;44.434;45.898;32.227;28.809;32.227
1553640590;59.57;41.016;33.691;65.43;28.32
1553640590;35.645;34.668;30.273;68.848;31.738
1553640590;23.438;35.156;30.762;44.922;32.715
1553640590;59.57;45.41;30.273;23.926;15.625
1553640590;18.555;38.574;30.762;17.09;24.902
1553640590;19.043;31.738;37.109;23.438;32.227
1553640590;43.457;35.156;35.156;15.137;17.09
1553640590;11.23;35.645;33.203;16.602;15.625
1553640590;50.293;36.621;32.715;38.086;13.672
1553640590;37.109;36.133;31.738;23.438;22.949
1553640590;-25.391;26.855;32.227;17.578;42.48
1553640590;14.16;31.738;25.391;20.02;27.344
1553640590;78.613;39.062;23.438;28.32;9.277
1553640590;66.406;36.621;28.809;54.688;14.648
1553640590;50.293;34.668;30.273;41.992;19.043
1553640590;21.973;28.32;27.832;30.762;20.996
1553640590;1.465;23.926;31.738;41.992;22.461
1553640590;22.949;32.715;32.715;20.996;21.484
1553640590;63.477;40.527;30.762;32.715;12.695
1553640590;50.293;32.715;32.227;61.035;6.348
1553640590;5.859;27.832;36.133;37.109;16.602
1553640590;-0.488;28.809;38.574;7.812;39.551
1553640590;60.059;34.668;30.273;2.441;26.367
1553640590;38.086;30.273;29.785;12.695;14.648
1553640590;-6.836;26.855;29.297;31.25;26.367
1553640590;32.715;35.645;29.297;23.438;20.508
1553640590;38.574;35.645;30.762;9.766;30.762
1553640590;24.414;33.691;30.762;17.578;30.273
1553640590;41.504;29.785;30.273;36.133;24.902
1553640590;57.129;26.367;29.297;55.664;36.133
1553640590;-2.441;16.602;32.227;55.664;44.922
1553640590;20.02;18.066;34.668;59.57;37.109
1553640590;88.867;29.297;31.738;46.875;17.578
1553640590;49.316;27.344;27.344;20.02;30.273
1553640590;23.926;31.25;27.344;11.719;49.805
1553640590;17.09;32.715;30.273;18.066;41.016
1553640590;20.02;27.344;30.762;10.254;20.02
1553640590;7.324;25.879;31.738;19.531;27.832
1553640590;31.738;30.762;31.738;56.152;31.738
1553640590;72.754;35.156;34.668;52.734;26.855
1553640590;69.336;28.809;35.645;28.809;17.578
1553640590;0;21.484;37.598;24.902;25.879
1553640590;-38.086;20.996;37.109;35.156;35.156
1553640590;0.488;26.855;33.691;39.062;25.391
1553640590;34.668;30.273;36.133;3.418;20.508
1553640590;45.41;27.832;34.18;-6.348;26.855
1553640590;33.203;29.297;37.598;32.715;25.879
1553640590;16.113;32.227;40.039;38.574;28.809
1553640590;7.324;26.855;37.598;56.641;30.273
1553640590;48.34;27.344;34.668;62.012;20.996
1553640590;72.266;34.18;31.738;20.996;15.625
1553640590;30.273;29.785;32.715;14.648;30.762
1553640590;4.883;29.785;33.691;10.254;45.41
1553640590;35.156;34.18;30.273;15.137;20.02
1553640590;35.645;27.832;29.297;34.668;10.254
1553640590;33.691;29.297;30.273;25.879;27.344
1553640590;26.367;32.227;25.879;31.738;34.668
1553640590;26.855;32.227;26.367;32.227;29.297
1553640590;47.363;33.203;30.762;26.367;31.25
1553640590;28.809;31.738;30.273;19.531;35.645
1553640590;25.879;32.227;26.367;19.043;28.32
1553640590;20.02;32.227;27.344;57.129;19.043
1553640590;9.766;27.832;29.785;48.828;25.391
1553640590;23.438;28.32;32.715;23.926;36.133
1553640590;48.828;36.133;32.715;41.016;28.32
1553640590;62.5;41.992;30.762;32.715;21.973
1553640590;39.551;35.645;31.25;14.648;22.461
1553640590;16.602;34.18;31.738;9.766;24.414
1553640590;24.414;34.18;30.762;9.277;33.691
1553640590;46.875;30.762;31.25;19.043;30.273
1553640590;48.828;31.738;33.203;23.926;24.414
1553640590;46.387;30.273;35.156;21.973;27.832
1553640590;38.574;30.273;33.203;31.25;29.297
1553640590;20.02;29.785;32.227;43.945;40.039
1553640590;31.738;27.832;29.297;41.504;32.715
1553640590;47.363;24.414;30.762;47.852;22.949
1553640590;41.504;29.297;33.203;43.945;29.785
1553640590;41.504;34.18;32.227;31.738;31.738
1553640590;42.969;31.25;34.668;41.504;27.344
1553640590;13.672;21.973;35.645;55.176;19.531
1553640590;5.371;19.043;33.203;43.945;20.996
1553640590;44.434;29.297;29.785;32.715;20.996
1553640590;47.852;29.297;33.691;37.598;28.32
1553640590;44.922;25.391;34.668;43.457;28.32
1553640590;57.129;26.855;29.785;39.062;20.02
1553640590;43.457;25.879;31.738;35.645;23.438
1553640590;28.32;22.949;31.738;27.344;30.762
1553640590;37.109;20.996;31.25;25.879;26.367
1553640590;45.41;20.508;33.203;41.504;17.578
1553640590;32.715;20.02;31.25;26.367;18.555
1553640590;28.809;20.996;27.832;9.766;25.879
1553640590;34.668;22.949;24.902;-7.324;28.32
1553640590;22.949;26.367;26.367;16.602;17.09
1553640590;32.715;26.367;27.832;48.34;19.531
1553640590;39.551;25.879;25.391;37.598;33.691
1553640590;39.551;28.32;24.902;30.273;24.414
1553640590;41.992;29.785;27.344;42.48;19.531
1553640590;34.668;29.785;31.25;23.438;26.367
1553640590;39.062;31.738;30.273;-6.836;33.691
1553640590;43.457;34.18;27.344;20.508;36.621
1553640590;54.199;34.668;23.926;52.734;35.645
1553640590;48.34;26.855;28.809;50.293;26.367
1553640590;31.738;12.695;36.621;50.293;30.762
1553640590;36.621;21.484;32.715;93.75;42.969
1553640590;35.645;34.18;13.672;107.91;29.297
1553640590;35.645;33.691;13.184;20.02;23.438
1553640590;38.574;50.781;25.391;0;59.082
1553640590;49.805;64.941;24.414;38.574;74.707
1553640590;42.969;16.602;35.156;16.602;40.527
1553640590;20.508;9.277;36.621;-20.02;20.996
1553640590;7.812;22.949;19.043;-38.574;11.719
1553640590;6.836;-17.09;19.043;-55.664;22.949
1553640590;-8.301;7.324;10.742;-81.543;12.695
1553640590;-34.18;40.527;11.23;-92.285;-35.156
1553640590;-68.848;-12.207;30.273;-97.656;-63.477
1553640590;-57.129;-59.57;72.266;-75.684;-47.852
1553640590;-82.031;-25.391;77.637;-62.988;-53.223
1553640590;-151.855;-3.906;19.531;-92.285;-103.516
1553640590;-149.414;-20.508;20.508;-134.277;-135.742
1553640590;-157.227;-9.277;-5.859;-167.48;-145.996
1553640590;-179.688;10.254;-24.902;-167.969;-147.949
1553640590;-183.105;5.859;40.039;-154.297;-150.879
1553640590;-182.617;2.441;64.941;-144.531;-148.438
1553640590;-178.711;-20.02;31.738;-155.273;-152.344
1553640590;-159.668;-27.832;21.973;-132.324;-128.418
1553640590;-173.34;-6.348;34.18;-105.469;-120.117
1553640590;-180.664;-9.766;32.715;-121.582;-143.066
1553640590;-171.387;-24.902;22.461;-119.141;-150.391
1553640590;-170.41;-34.668;23.438;-92.773;-136.23
1553640590;-134.766;-31.25;47.363;-81.055;-104.98
1553640590;-105.469;-9.277;57.617;-53.711;-84.473
1553640590;-119.629;10.742;24.414;-86.914;-101.562
1553640590;-159.668;15.625;9.766;-133.301;-127.441
1553640590;-154.297;8.301;5.371;-119.629;-125.977
1553640590;-119.141;11.719;1.953;-88.379;-95.703
1553640590;-107.422;13.184;20.508;-78.613;-79.102
1553640590;-105.957;0.488;19.531;-72.266;-75.195
1553640590;-96.68;-1.465;5.859;-59.57;-56.641
1553640590;-80.078;8.789;0.488;-52.246;-47.363
1553640590;-62.012;18.066;10.254;-42.969;-43.457
1553640590;-38.574;23.926;16.602;-22.949;-31.738
1553640590;-29.785;27.832;11.23;-9.766;-13.672
1553640590;-20.02;31.25;7.812;-12.207;-11.23
1553640590;-15.137;33.691;10.254;1.465;-14.16
1553640590;-4.395;36.621;16.113;7.812;-7.324
1553640590;3.906;41.992;16.113;11.23;-2.441
1553640590;-20.508;46.875;14.648;15.137;2.93
1553640590;-7.812;51.27;17.578;8.301;-5.371
1553640590;6.836;55.664;14.648;30.762;-7.812
1553640590;2.93;55.664;12.695;34.18;4.395
1553640590;22.461;55.664;12.695;21.484;-0.977
1553640590;20.996;55.664;20.996;23.926;-8.789
1553640590;28.809;58.105;23.926;27.344;6.836
1553640590;21.973;61.523;15.625;30.273;17.09
1553640590;-3.418;51.27;10.742;18.555;21.973
1553640590;27.344;53.711;16.113;24.414;23.438
1553640590;38.574;64.453;21.484;31.738;11.23
1553640590;27.344;59.082;18.555;29.785;20.996
1553640590;39.551;51.27;19.531;26.367;26.855
1553640590;30.273;51.27;21.973;24.414;15.625
1553640590;25.391;58.594;13.184;21.973;14.16
1553640590;30.762;58.105;11.23;14.648;25.879
1553640590;34.18;55.176;17.578;30.273;35.645
1553640590;34.668;53.223;17.578;26.367;36.133
1553640590;29.785;51.758;16.602;22.461;31.738
1553640590;38.574;50.781;20.02;34.18;29.785
1553640590;45.41;44.434;13.184;31.738;43.945
1553640590;49.805;55.664;-0.977;25.391;50.293
1553640590;36.621;62.5;11.719;28.809;38.574
1553640591;25.879;56.641;31.25;28.809;35.156
1553640591;42.48;55.664;30.273;34.668;39.551
1553640591;47.363;53.711;31.25;47.852;46.875
1553640591;46.387;51.758;31.738;32.715;38.086
1553640591;47.363;47.363;28.809;14.648;27.344
1553640591;41.504;44.922;10.742;25.391;31.25
1553640591;31.738;41.992;11.23;36.133;34.18
1553640591;26.367;37.109;32.227;31.738;33.691
1553640591;16.602;37.598;24.414;35.645;32.715
1553640591;20.02;33.691;18.555;56.641;34.18
1553640591;41.016;24.902;18.066;82.031;36.621
1553640591;42.48;22.949;20.996;56.641;32.227
1553640591;44.922;37.598;35.156;-4.883;25.391
1553640591;47.363;47.852;32.227;-12.207;31.25
1553640591;40.039;43.945;26.855;-13.184;36.621
1553640591;33.203;44.922;26.367;2.441;37.598
1553640591;27.832;46.875;20.996;15.625;32.227
1553640591;25.391;41.504;21.484;7.812;28.32
1553640591;34.668;37.598;18.066;16.113;34.18
1553640591;36.621;36.133;23.926;22.461;44.922
1553640591;42.48;30.762;33.203;27.344;41.504
1553640591;48.34;32.227;25.879;26.367;37.598
1553640591;50.293;34.18;23.926;24.414;38.574
1553640591;49.805;30.762;26.367;40.527;37.109
1553640591;39.551;29.785;19.043;35.156;41.016
1553640591;39.551;27.344;24.414;30.273;32.227
1553640591;32.227;24.902;27.344;33.203;27.832
1553640591;33.691;21.973;16.113;22.461;38.574
1553640591;49.316;27.832;19.531;49.805;35.645
1553640591;41.992;30.273;27.832;75.195;27.832
1553640591;42.969;27.344;36.133;39.551;29.785
1553640591;40.527;28.809;40.039;30.762;40.039
1553640591;21.973;26.367;37.109;14.648;47.852
1553640591;31.25;27.344;34.668;0.488;41.504
1553640591;41.016;28.32;33.691;11.23;37.598
1553640591;17.578;24.902;31.25;19.531;42.48
1553640591;30.273;24.902;22.949;28.32;44.922
1553640591;42.969;23.926;20.996;15.137;38.086
1553640591;32.715;18.555;31.738;10.254;28.809
1553640591;43.457;20.508;38.574;25.879;28.32
1553640591;40.039;21.484;37.109;31.25;39.551
1553640591;32.227;20.508;35.156;22.949;40.039
1553640591;24.902;22.949;29.297;20.996;33.691
1553640591;20.996;19.531;27.344;27.832;36.133
1553640591;23.926;19.531;26.367;38.574;38.574
1553640591;25.879;20.508;19.043;33.203;39.551
1553640591;24.902;19.043;21.484;22.949;36.133
1553640591;29.297;21.973;31.25;28.32;33.691
1553640591;36.621;20.508;30.273;30.762;36.621
1553640591;39.551;17.578;25.879;32.227;43.457
1553640591;39.062;20.508;18.555;39.062;40.527
1553640591;35.156;19.043;20.02;39.551;37.109
1553640591;40.039;11.23;36.621;38.574;50.293
1553640591;46.875;9.277;48.828;38.086;49.805
1553640591;50.293;16.113;44.434;39.062;34.668
1553640591;37.109;18.555;32.715;37.109;24.902
1553640591;24.902;29.297;32.227;32.227;22.461
1553640591;28.809;39.062;37.598;38.086;30.273
1553640591;27.832;39.551;41.016;25.391;29.297
1553640591;34.668;39.062;27.344;25.879;20.508
1553640591;36.133;33.203;18.555;35.645;19.043
1553640591;28.809;25.879;29.297;15.625;24.414
1553640591;24.414;24.902;37.598;14.16;33.203
1553640591;22.949;25.391;35.156;20.996;28.809
1553640591;22.949;22.949;27.832;23.438;20.996
1553640591;27.832;22.949;26.855;20.996;23.438
1553640591;30.273;24.902;30.762;26.367;33.203
1553640591;31.738;25.879;29.785;32.227;23.438
1553640591;28.32;25.391;25.391;35.645;14.648
1553640591;20.02;24.414;25.391;27.344;24.414
1553640591;19.043;24.414;26.855;11.23;36.621
1553640591;22.461;22.949;26.855;28.32;36.621
1553640591;22.949;22.949;27.344;36.621;19.043
1553640591;25.391;28.32;30.273;13.184;14.16
1553640591;19.531;28.32;28.809;0;22.461
1553640591;22.461;21.973;27.344;17.578;35.645
1553640591;42.48;17.578;31.25;41.992;52.734
1553640591;40.527;21.484;34.18;37.598;42.969
1553640591;24.902;29.785;31.738;13.184;12.695
1553640591;26.855;32.227;27.344;7.324;19.531
1553640591;41.504;30.273;21.484;22.949;31.25
1553640591;60.547;33.203;20.996;37.109;36.621
1553640591;65.43;37.109;26.855;43.945;44.434
1553640591;63.477;37.598;30.762;49.316;43.457
1553640591;80.566;39.062;29.785;55.664;49.805
1553640591;88.379;46.875;29.785;52.246;51.758
1553640591;84.473;49.316;26.855;62.012;55.176
1553640591;84.473;46.387;22.949;81.055;67.383
1553640591;83.496;50.293;26.855;71.289;61.523
1553640591;90.82;58.105;26.367;65.918;59.082
1553640591;110.352;61.523;20.02;72.754;73.242
1553640591;122.559;69.336;21.973;68.359;85.938
1553640591;127.93;77.637;23.926;81.543;89.844
1553640591;134.277;80.078;22.949;95.703;88.867
1553640591;152.832;83.496;18.066;101.074;103.027
1553640591;169.434;88.379;10.742;93.75;113.281
1553640591;169.922;93.75;12.207;102.539;123.047
1553640591;172.363;92.773;8.789;120.117;120.605
1553640591;175.293;94.238;5.859;114.258;118.164
1553640591;168.945;100.586;10.254;119.629;137.695
1553640591;167.48;93.75;9.277;142.09;139.648
1553640591;170.41;87.402;10.254;136.23;131.836
1553640591;173.828;86.914;11.23;118.164;130.859
1553640591;186.523;83.984;9.766;121.582;137.207
1553640591;182.129;84.473;13.672;135.742;149.414
1553640591;161.621;82.52;17.09;139.648;144.043
1553640591;151.367;75.684;17.09;121.094;124.023
1553640591;145.996;68.848;18.555;113.281;122.07
1553640591;145.508;65.43;19.531;118.164;123.047
1553640591;145.996;60.547;22.461;125.977;114.258
1553640591;135.254;58.105;23.926;109.863;102.539
1553640591;123.535;57.129;26.855;88.379;94.238
1553640591;122.07;53.223;24.414;76.66;100.586
1553640591;116.699;49.316;20.996;83.984;99.121
1553640591;109.375;45.898;23.926;93.262;83.984
1553640591;103.027;44.434;24.902;85.938;83.008
1553640591;88.379;39.062;27.344;73.73;82.031
1553640591;76.66;35.156;30.273;61.523;77.637
1553640591;54.199;35.156;31.25;67.383;67.383
1553640591;50.781;34.668;30.273;69.336;54.199
1553640591;73.73;34.668;27.832;48.828;56.641
1553640591;68.359;31.25;23.438;20.02;58.594
1553640591;49.316;28.32;26.855;13.184;50.781
1553640591;46.387;28.809;34.18;29.297;36.133
1553640591;45.41;29.297;34.18;26.367;33.691
1553640591;41.992;31.738;32.227;16.602;39.551
1553640591;43.457;34.668;33.203;15.625;42.48
1553640591;36.133;34.18;34.18;32.227;31.738
1553640591;25.391;31.25;30.762;56.152;25.391
1553640591;21.484;27.344;28.809;36.621;27.832
1553640591;24.414;28.32;27.832;9.277;25.391
1553640591;34.668;29.297;28.32;5.371;20.508
1553640591;20.508;27.832;27.832;6.836;14.648
1553640591;-1.465;27.344;30.273;8.789;15.137
1553640591;0.977;26.855;34.668;12.207;21.484
1553640591;3.418;24.902;33.691;6.348;20.996
1553640591;15.137;26.367;32.227;21.484;14.16
1553640591;16.113;29.297;33.203;36.133;9.277
1553640591;-0.488;26.855;35.156;31.738;10.742
1553640591;4.395;26.855;33.691;15.137;15.625
1553640591;10.742;27.832;34.668;-4.883;11.719
1553640591;12.695;25.879;37.109;1.465;13.672
1553640591;19.043;26.367;35.645;10.254;13.184
1553640591;11.23;27.344;37.598;-2.93;9.766
1553640591;8.301;26.855;38.086;-1.953;8.789
1553640591;3.906;28.32;38.574;18.066;10.254
1553640591;15.137;26.855;37.109;22.949;16.113
1553640591;17.578;24.902;32.715;14.16;21.973
1553640591;0.977;25.879;31.25;9.766;18.066
1553640591;0;28.809;38.574;11.23;8.789
1553640591;6.836;30.762;43.457;25.391;8.301
1553640591;13.184;33.203;44.434;12.207;20.02
1553640591;12.695;32.227;41.504;22.461;20.02
1553640591;21.484;31.25;38.086;33.691;14.648
1553640591;29.785;29.785;38.086;10.742;16.113
1553640591;28.32;29.785;36.133;20.996;19.043
1553640591;12.207;28.32;36.621;56.152;18.066
1553640591;-5.371;29.297;36.133;42.969;15.625
1553640591;-6.836;33.203;33.203;-7.812;22.461
1553640591;12.695;36.133;32.715;-10.254;35.645
1553640591;21.973;39.062;28.809;7.324;36.621
1553640591;17.578;40.527;29.785;13.184;26.855
1553640591;27.832;40.527;35.645;19.043;23.438
1553640591;28.809;35.156;34.668;24.414;26.367
1553640591;20.02;33.691;31.25;19.043;30.273
1553640591;17.578;36.621;30.273;10.254;30.273
1553640591;25.391;37.598;32.227;32.227;26.855
1553640591;27.344;36.133;31.25;37.109;27.832
1553640591;23.438;36.133;32.227;20.02;41.992
1553640591;28.809;37.598;34.668;47.852;45.41
1553640591;37.109;39.062;31.25;46.387;33.203
1553640591;33.691;39.551;27.832;18.066;33.691
1553640591;34.18;38.086;29.785;10.254;38.574
1553640591;38.086;40.039;29.297;17.09;35.645
1553640591;30.762;42.969;31.738;29.785;31.25
1553640591;32.715;40.527;40.527;28.32;47.363
1553640591;34.18;37.109;43.457;49.805;67.871
1553640591;35.645;35.645;38.574;61.523;62.5
1553640591;37.109;35.645;35.645;34.668;31.25
1553640591;29.297;31.25;37.109;39.551;8.789
1553640591;23.926;26.855;36.133;51.758;10.742
1553640591;30.273;31.738;35.156;40.527;20.996
1553640591;47.852;35.645;34.668;31.25;25.879
1553640591;47.852;33.691;34.668;20.02;23.926
1553640591;35.156;31.738;34.668;11.719;30.273
1553640591;28.32;31.25;34.668;5.371;43.457
1553640591;31.738;32.227;31.738;-4.883;41.016
1553640591;36.621;30.762;29.297;-0.488;38.574
1553640591;21.484;29.297;33.203;21.973;78.613
1553640591;19.531;29.785;30.762;32.715;79.102
1553640591;31.738;27.832;28.32;22.461;31.738
1553640591;39.551;26.855;33.691;24.902;18.066
1553640591;51.758;25.879;34.18;41.016;53.223
1553640591;56.641;29.785;34.668;67.383;61.523
1553640591;61.035;36.621;32.227;78.125;45.41
1553640591;42.969;38.574;27.832;62.5;32.227
1553640591;4.883;42.48;27.832;33.691;0
1553640591;-10.742;42.48;28.32;-1.465;-4.395
1553640591;-14.16;38.574;12.695;-25.879;-5.859
1553640591;-24.902;54.688;-8.789;-47.852;-27.832
1553640591;-38.574;55.176;-3.418;-71.777;-53.711
1553640591;-50.781;46.387;17.578;-83.008;-57.617
1553640591;-49.805;61.035;14.648;-82.031;-45.41
1553640591;-56.152;57.129;2.441;-77.637;-53.711
1553640591;-74.707;69.336;0.488;-83.496;-79.102
1553640591;-79.102;87.891;6.836;-95.215;-89.355
1553640591;-75.195;96.68;8.789;-79.59;-70.312
1553640591;-72.754;102.539;-1.465;-86.426;-70.312
1553640591;-60.547;99.121;-4.395;-93.75;-75.684
1553640591;-64.453;100.586;2.93;-79.59;-67.871
1553640591;-69.336;101.074;5.859;-87.402;-64.453
1553640591;-37.109;92.285;9.277;-84.961;-44.434
1553640591;-20.02;82.031;1.465;-57.129;-38.086
1553640591;-25.391;82.031;-2.441;-52.734;-35.645
1553640591;-33.203;79.102;-6.836;-49.316;-16.113
1553640591;-31.738;73.242;-5.371;-34.18;-3.906
1553640591;-18.555;67.871;18.066;-36.621;0.488
1553640591;-7.812;68.359;25.879;-22.949;-5.859
1553640591;-3.418;66.895;24.902;-14.16;-7.324
1553640591;6.348;64.941;20.508;1.953;12.207
1553640591;18.066;62.5;21.973;19.531;22.461
1553640591;18.555;59.082;23.926;9.766;16.602
1553640591;24.902;57.617;20.996;-5.371;18.555
1553640591;29.785;57.617;17.09;-2.441;25.391
1553640591;17.09;55.176;17.578;19.043;27.832
1553640591;11.719;52.734;17.09;13.184;23.926
1553640591;21.484;53.223;15.137;5.371;27.344
1553640591;32.227;53.711;20.02;17.09;44.922
1553640591;54.688;51.27;23.438;17.578;58.594
1553640591;52.734;47.363;21.973;20.996;47.363
1553640591;37.598;44.434;24.902;24.414;34.18
1553640591;33.691;41.504;23.438;7.812;33.203
1553640591;16.602;39.062;23.438;26.855;29.785
1553640591;7.812;36.133;26.367;39.062;24.902
1553640591;9.766;37.109;24.902;13.184;19.043
1553640591;18.066;35.645;26.367;17.578;21.484
1553640591;26.855;33.691;22.461;2.441;40.527
1553640591;16.602;30.762;22.949;-9.277;27.344
1553640591;16.113;25.879;32.227;20.02;24.902
1553640591;21.484;16.602;34.668;41.504;38.574
1553640591;9.277;22.461;28.32;14.16;10.254
1553640591;-15.137;26.367;21.973;-19.531;-9.766
1553640591;-9.766;20.996;21.973;-14.648;-12.207
1553640591;2.441;41.992;24.902;10.742;-20.508
1553640591;-6.348;59.57;23.926;10.742;-22.461
1553640591;1.465;56.152;21.973;-17.09;-8.789
1553640591;0;46.387;16.602;-26.367;-4.395
1553640591;-11.719;36.621;12.695;-23.438;-14.648
1553640591;-2.93;37.598;15.625;-21.484;-15.137
1553640591;6.836;48.34;17.09;-10.742;-0.977
1553640591;-5.859;41.016;20.996;2.93;0
1553640591;-11.23;29.297;21.973;-2.93;-4.883
1553640591;-5.859;26.367;17.09;-17.09;-6.348
1553640591;4.883;28.32;16.602;-10.742;-1.465
1553640591;24.902;37.109;15.137;-2.93;10.254
1553640591;34.18;41.992;19.531;10.254;1.953
1553640592;23.438;27.832;31.738;20.02;-4.395
1553640592;12.207;15.625;34.668;13.672;3.906
1553640592;-0.488;23.926;27.832;0.488;9.766
1553640592;-1.953;36.133;25.391;-12.695;9.766
1553640592;-0.977;42.969;23.926;-22.949;4.883
1553640592;0.977;43.457;20.996;-17.578;6.836
1553640592;9.277;40.527;23.926;0;18.555
1553640592;8.789;32.227;23.438;5.859;20.508
1553640592;11.23;20.996;25.879;1.465;14.648
1553640592;8.789;23.438;27.832;-0.488;15.625
1553640592;6.836;29.297;25.391;0.977;18.066
1553640592;9.766;20.996;26.367;4.883;14.648
1553640592;20.508;15.625;26.855;4.883;10.742
1553640592;27.344;25.879;28.32;5.371;13.672
1553640592;26.367;22.949;29.297;16.113;24.902
1553640592;11.719;10.254;33.203;23.926;26.855
1553640592;14.648;14.16;36.621;13.672;26.367
1553640592;39.551;17.09;32.227;22.461;31.25
1553640592;38.086;9.766;35.156;42.48;26.855
1553640592;38.086;9.766;35.156;45.898;31.25
1553640592;36.621;20.02;34.668;40.039;39.062
1553640592;16.602;16.113;37.109;24.414;29.785
1553640592;11.719;17.09;34.668;11.23;20.02
1553640592;13.672;21.973;23.438;10.742;23.438
1553640592;24.414;20.508;27.344;28.32;29.785
1553640592;48.34;21.484;48.34;56.152;41.016
1553640592;27.832;19.043;49.316;40.039;23.438
1553640592;8.789;18.555;41.504;16.602;8.789
1553640592;17.578;20.02;38.086;0.488;15.625
1553640592;20.02;20.02;39.062;-0.977;15.137
1553640592;23.438;20.508;36.621;11.23;11.719
1553640592;30.762;19.531;33.691;21.484;20.02
1553640592;19.043;11.23;44.922;29.297;28.809
1553640592;3.418;10.254;48.828;34.18;21.973
1553640592;26.367;20.508;40.039;35.645;19.043
1553640592;39.062;11.23;36.621;34.668;19.531
1553640592;19.043;6.348;36.133;19.531;20.996
1553640592;9.277;13.672;37.109;12.695;13.672
1553640592;11.719;13.184;34.18;13.672;9.766
1553640592;6.348;19.043;26.367;20.02;6.836
1553640592;11.23;28.809;36.133;13.672;9.766
1553640592;13.672;38.086;42.48;12.695;22.949
1553640592;-4.395;36.133;41.016;16.113;16.113
1553640592;8.301;26.855;40.527;-4.395;11.719
1553640592;35.645;23.438;41.016;14.648;13.672
1553640592;13.672;18.555;41.504;21.484;15.625
1553640592;26.367;20.02;40.039;33.203;22.949
1553640592;33.691;25.879;41.504;58.594;14.16
1553640592;20.508;23.926;36.621;34.668;5.859
1553640592;34.668;31.25;32.715;32.227;28.32
1553640592;41.504;39.062;36.621;58.105;31.25
1553640592;36.621;6.348;38.574;53.711;19.043
1553640592;40.039;-0.488;36.133;41.016;25.391
1553640592;34.668;30.273;40.527;58.594;20.508
1553640592;24.414;37.598;42.48;62.012;9.277
1553640592;28.809;48.34;39.062;53.711;15.625
1553640592;39.062;38.086;41.504;71.289;22.461
1553640592;66.406;21.484;42.969;68.848;34.668
1553640592;72.266;26.367;41.992;54.199;41.992
1553640592;41.016;31.738;39.551;44.922;36.133
1553640592;36.621;29.785;36.133;45.898;40.039
1553640592;36.621;34.18;39.062;68.359;40.527
1553640592;41.992;43.945;43.457;71.777;50.781
1553640592;45.41;28.809;42.969;64.941;59.57
1553640592;33.691;11.719;36.133;84.473;53.223
1553640592;33.203;18.066;31.738;85.938;61.035
1553640592;45.898;25.391;36.133;69.336;76.66
1553640592;54.688;34.668;39.551;43.945;60.059
1553640592;43.457;34.668;33.203;22.461;39.551
1553640592;44.434;36.133;26.855;27.832;55.176
1553640592;55.176;44.434;26.367;46.387;63.965
1553640592;37.598;42.969;29.785;78.125;50.293
1553640592;19.531;40.039;26.367;71.777;40.527
1553640592;31.738;39.062;24.414;63.477;34.18
1553640592;36.621;43.945;25.879;52.734;29.297
1553640592;41.016;42.969;25.391;27.832;28.809
1553640592;36.621;38.574;30.273;51.758;35.156
1553640592;3.418;40.039;29.785;30.273;42.969
1553640592;-18.555;42.48;28.809;3.906;49.805
1553640592;15.137;38.574;31.25;28.32;58.594
1553640592;34.18;35.156;26.367;33.203;44.922
1553640592;19.043;34.18;23.438;35.156;41.016
1553640592;36.621;31.738;25.879;26.367;41.504
1553640592;29.785;34.668;28.809;15.137;43.457
1553640592;29.785;26.855;26.367;42.48;42.48
1553640592;40.039;20.02;20.996;41.504;14.16
1553640592;25.879;32.227;29.785;50.293;13.184
1553640592;20.02;36.133;37.598;42.48;40.039
1553640592;9.766;35.156;32.715;28.32;33.203
1553640592;5.371;30.762;31.738;26.855;19.043
1553640592;3.906;29.785;31.738;12.695;16.602
1553640592;7.324;33.203;31.25;12.695;24.414
1553640592;21.973;34.18;34.668;34.18;41.504
1553640592;56.152;35.645;27.344;39.551;41.504
1553640592;47.852;26.855;20.02;32.227;33.691
1553640592;33.691;32.227;25.391;27.832;36.621
1553640592;41.504;44.922;35.156;46.387;46.387
1553640592;45.898;40.527;37.109;69.824;50.781
1553640592;52.734;38.574;31.738;67.383;52.734
1553640592;54.688;44.922;32.715;42.48;53.223
1553640592;41.504;45.898;35.156;41.504;59.57
1553640592;24.414;43.945;37.598;46.875;55.664
1553640592;34.668;48.828;38.086;43.945;54.199
1553640592;54.688;51.27;37.109;50.781;66.406
1553640592;54.199;45.898;34.18;69.336;71.289
1553640592;32.715;40.527;27.832;62.012;63.965
1553640592;32.227;39.062;31.25;41.016;57.129
1553640592;42.48;36.621;35.156;40.527;52.734
1553640592;49.805;38.086;30.762;49.805;55.664
1553640592;60.547;41.992;28.32;63.965;62.5
1553640592;64.453;38.086;32.227;66.895;63.477
1553640592;59.57;39.551;32.227;69.336;54.199
1553640592;51.27;41.992;29.785;71.289;55.664
1553640592;58.594;37.109;34.668;70.801;73.242
1553640592;53.711;38.086;36.133;54.199;64.941
1553640592;64.453;41.992;33.691;32.715;59.57
1553640592;72.266;43.457;36.621;28.809;77.637
1553640592;49.805;34.668;36.621;35.645;80.078
1553640592;55.176;29.785;38.574;52.734;66.895
1553640592;54.688;38.574;34.668;62.988;77.148
1553640592;38.086;39.551;29.297;52.734;69.336
1553640592;50.293;34.668;36.621;41.504;51.27
1553640592;55.664;33.203;38.086;35.156;54.199
1553640592;46.387;32.227;34.18;42.48;43.945
1553640592;45.41;25.879;32.227;61.523;38.574
1553640592;57.129;26.855;33.691;91.309;51.758
1553640592;72.266;37.598;32.227;103.516;68.848
1553640592;60.059;31.738;33.691;75.684;46.875
1553640592;32.715;24.414;35.156;34.18;30.273
1553640592;11.719;23.926;36.133;1.953;34.668
1553640592;19.043;17.578;38.086;4.883;35.645
1553640592;34.18;17.578;38.086;28.809;30.273
1553640592;46.387;24.902;30.762;38.086;33.203
1553640592;65.918;30.273;21.484;51.27;56.641
1553640592;56.641;27.832;32.227;51.758;54.199
1553640592;-0.488;21.484;44.922;27.832;28.809
1553640592;-30.273;13.672;41.504;42.969;15.137
1553640592;21.484;15.625;35.156;42.48;14.16
1553640592;46.387;10.742;39.551;15.137;4.883
1553640592;9.766;-5.371;43.457;6.348;-12.207
1553640592;-18.555;-9.766;36.621;-13.184;-24.902
1553640592;-17.578;-15.137;33.691;-35.156;-41.504
1553640592;-21.973;-20.996;37.109;-28.32;-32.715
1553640592;-44.434;-27.832;40.039;-12.695;-26.367
1553640592;-51.27;-28.809;44.434;-18.066;-27.832
1553640592;-58.594;-26.855;44.434;5.859;-27.832
1553640592;-48.34;-27.832;38.086;5.371;-24.902
1553640592;-25.879;-30.273;38.574;-4.883;-16.602
1553640592;-20.996;-27.344;36.621;-5.859;-19.531
1553640592;-2.93;-24.902;32.227;0.977;-9.277
1553640592;6.348;-21.484;36.133;9.766;-9.766
1553640592;2.93;-12.695;35.645;-4.395;-17.578
1553640592;1.953;-12.207;36.133;-13.672;-17.578
1553640592;9.766;-18.555;38.574;6.836;-12.695
1553640592;10.742;-16.113;38.574;60.059;-11.719
1553640592;5.859;-6.836;41.504;53.711;-4.883
1553640592;10.254;-0.977;40.527;0.488;12.207
1553640592;6.836;-1.465;38.086;-16.113;11.719
1553640592;1.953;-0.488;42.969;14.16;16.113
1553640592;6.348;5.859;46.875;39.062;19.531
1553640592;4.395;8.301;45.41;44.434;28.32
1553640592;14.648;12.207;39.062;26.367;23.438
1553640592;39.551;11.23;36.621;31.25;6.348
1553640592;21.484;10.742;38.574;41.016;23.926
1553640592;-0.488;11.719;37.109;29.297;45.41
1553640592;8.789;10.742;39.062;38.086;33.691
1553640592;26.855;13.672;38.086;54.688;28.809
1553640592;37.598;18.066;34.18;39.062;35.156
1553640592;29.785;18.555;39.062;17.09;40.039
1553640592;34.18;18.066;39.551;25.391;38.574
1553640592;35.156;13.672;33.691;36.621;29.785
1553640592;32.227;16.602;33.203;30.273;29.785
1553640592;37.109;24.414;35.645;37.109;33.691
1553640592;42.969;27.832;35.156;71.289;36.133
1553640592;49.316;28.32;31.738;85.938;28.32
1553640592;46.875;26.855;32.715;66.895;19.043
1553640592;55.664;24.902;39.062;24.414;26.367
1553640592;44.922;23.926;40.039;14.16;35.156
1553640592;8.301;25.879;37.598;11.23;30.762
1553640592;5.371;26.367;38.086;3.418;27.344
1553640592;9.277;25.391;37.598;28.809;32.227
1553640592;2.441;26.367;34.18;24.902;42.48
1553640592;6.836;23.926;32.227;18.066;38.574
1553640592;17.578;19.531;35.156;17.578;31.25
1553640592;19.043;20.996;33.203;15.137;27.832
1553640592;32.715;23.926;31.738;32.715;31.738
1553640592;40.039;26.367;32.227;38.574;33.691
1553640592;12.207;32.227;27.344;0.488;27.832
1553640592;4.395;29.785;27.832;-13.672;30.762
1553640592;21.484;27.832;32.227;13.672;38.574
1553640592;25.879;30.762;31.738;37.109;48.828
1553640592;25.391;30.273;33.691;45.41;43.945
1553640592;44.922;32.227;35.645;33.203;31.738
1553640592;21.973;30.762;35.156;17.09;31.25
1553640592;6.836;26.367;34.668;21.973;43.945
1553640592;44.922;28.32;30.273;50.293;44.922
1553640592;48.34;28.32;33.203;53.223;32.227
1553640592;38.574;23.926;37.598;31.25;22.461
1553640592;45.898;27.344;35.645;31.25;29.785
1553640592;49.805;29.785;30.762;51.758;30.273
1553640592;66.895;26.855;30.273;42.969;20.996
1553640592;50.293;25.879;34.668;19.043;28.32
1553640592;31.738;29.785;34.18;28.809;41.016
1553640592;53.223;33.691;32.715;33.691;47.363
1553640592;63.965;36.133;32.227;30.762;48.828
1553640592;84.473;34.668;31.25;35.156;47.363
1553640592;79.102;25.879;35.645;48.34;45.898
1553640592;25.391;25.391;40.039;48.828;51.758
1553640592;9.277;30.762;38.574;42.969;43.945
1553640592;16.602;30.273;34.668;49.805;32.715
1553640592;4.883;27.832;37.109;58.105;31.25
1553640592;1.953;28.32;40.527;56.641;33.691
1553640592;24.902;31.738;38.574;33.203;33.203
1553640592;35.645;35.645;36.621;20.508;23.438
1553640592;34.668;39.062;37.598;27.832;28.32
1553640592;35.156;39.062;37.598;41.992;36.133
1553640592;33.691;36.133;33.691;40.039;19.043
1553640592;34.18;34.668;32.227;24.902;10.254
1553640592;37.598;33.691;32.227;17.09;17.578
1553640592;31.25;30.273;33.203;23.926;24.414
1553640592;32.227;30.762;32.715;39.062;24.902
1553640592;34.18;31.738;32.715;29.785;21.484
1553640592;26.855;35.156;35.156;28.809;24.414
1553640592;37.598;35.645;36.133;35.645;23.926
1553640592;34.18;30.762;37.109;37.109;31.25
1553640592;48.34;30.762;36.621;31.25;33.691
1553640592;62.988;34.18;34.18;34.668;15.137
1553640592;33.203;34.668;34.668;38.574;16.602
1553640592;21.484;35.156;32.715;41.992;30.273
1553640592;17.578;35.645;29.297;42.48;26.367
1553640592;12.695;33.691;29.785;32.715;20.02
1553640592;14.16;31.25;31.738;28.32;19.043
1553640592;8.789;33.203;30.273;12.695;24.414
1553640592;22.461;34.668;30.762;4.395;23.926
1553640592;35.645;32.715;29.297;9.766;18.066
1553640592;33.691;31.738;28.809;27.832;13.184
1553640592;36.133;30.762;29.297;27.832;21.973
1553640592;27.344;30.273;31.738;19.531;28.809
1553640592;17.09;30.273;27.344;13.184;17.578
1553640592;27.832;23.926;22.461;22.949;21.973
1553640592;32.715;23.438;28.32;41.992;31.738
1553640592;21.973;28.809;30.273;35.645;29.785
1553640592;18.066;29.785;28.809;20.02;22.461
1553640592;16.113;30.762;31.25;30.762;13.672
1553640592;7.812;32.715;33.203;30.273;16.602
1553640592;33.691;38.086;32.715;15.625;24.414
1553640592;45.898;38.574;31.738;34.18;20.02
1553640592;35.156;34.668;31.25;43.945;9.766
1553640592;24.414;32.227;32.715;13.672;6.836
1553640592;33.203;33.691;34.18;12.695;16.602
1553640592;26.855;38.086;33.691;9.766;15.625
1553640592;13.672;36.133;29.297;0.488;8.789
1553640592;27.832;31.738;30.762;11.23;10.742
1553640592;38.086;30.762;33.203;32.227;21.973
1553640592;45.41;33.203;30.273;37.598;21.484
1553640592;26.367;34.18;31.738;13.672;7.324
1553640593;22.461;36.621;31.738;2.441;4.883
1553640593;31.738;34.18;31.738;20.508;10.254
1553640593;44.922;31.738;32.227;8.789;11.23
1553640593;25.879;31.738;30.762;0.977;13.184
1553640593;11.719;26.367;32.715;38.574;34.18
1553640593;21.484;32.715;33.203;39.062;35.645
1553640593;25.879;42.969;28.809;18.555;9.766
1553640593;8.789;47.852;27.344;19.043;1.953
1553640593;22.461;54.688;24.414;32.715;13.184
1553640593;48.828;63.477;20.508;27.832;13.184
1553640593;49.805;67.871;19.043;17.578;25.391
1553640593;56.152;71.289;19.531;33.203;42.48
1553640593;80.078;76.66;18.066;46.875;35.156
1553640593;92.285;81.543;11.719;39.551;29.785
1553640593;56.641;82.031;10.742;24.414;32.715
1553640593;56.152;84.473;11.719;8.789;34.668
1553640593;64.453;87.402;8.789;8.789;46.387
1553640593;37.598;86.914;9.766;23.438;63.477
1553640593;31.738;83.008;12.695;33.691;70.801
1553640593;51.27;76.66;13.184;33.203;73.242
1553640593;49.805;74.707;16.113;41.016;62.5
1553640593;51.758;74.219;18.066;54.688;50.781
1553640593;63.965;71.289;14.648;48.828;49.805
1553640593;70.801;72.266;17.578;53.711;58.594
1553640593;62.012;67.871;23.926;68.848;55.664
1553640593;65.43;63.477;23.438;63.477;50.781
1553640593;78.613;62.988;22.461;44.434;51.27
1553640593;70.801;60.547;22.949;36.133;53.711
1553640593;46.387;59.57;23.438;29.785;55.664
1553640593;38.086;55.176;22.949;31.738;48.34
1553640593;54.199;49.805;25.391;64.941;48.34
1553640593;84.961;54.199;26.855;60.059;46.875
1553640593;84.961;55.664;24.902;22.461;47.852
1553640593;37.109;52.246;24.902;23.438;51.758
1553640593;27.832;48.34;22.949;38.086;53.711
1553640593;56.152;48.34;22.461;55.176;57.617
1553640593;73.242;50.781;23.438;63.477;54.688
1553640593;55.176;47.363;21.484;33.691;49.316
1553640593;44.922;45.898;18.555;11.23;41.992
1553640593;49.316;46.387;21.484;32.715;35.156
1553640593;45.41;46.387;22.949;50.293;42.48
1553640593;47.852;48.828;23.926;46.387;44.434
