timestamps;TP9;AF7;AF8;TP10;Right AUX
1553640089;72.754;26.855;14.648;74.219;76.66
1553640089;61.523;26.855;17.578;84.961;66.895
1553640089;74.219;28.809;20.996;82.031;68.359
1553640089;78.125;27.832;21.973;80.566;72.266
1553640089;76.172;27.832;19.531;79.59;72.266
1553640089;83.496;30.762;19.531;70.801;77.148
1553640089;77.148;33.691;20.508;72.754;84.473
1553640089;70.801;31.25;20.996;67.383;83.008
1553640089;74.707;31.25;28.32;66.406;82.52
1553640089;68.848;32.715;28.809;74.707;76.172
1553640089;64.453;28.809;27.832;87.402;67.871
1553640089;58.594;24.902;32.715;83.984;65.918
1553640089;49.805;27.344;34.668;77.148;67.871
1553640089;50.293;29.297;33.203;90.332;65.43
1553640089;66.406;26.855;29.785;80.078;58.105
1553640089;64.453;28.32;27.832;51.758;53.711
1553640089;63.477;30.273;25.879;51.758;53.711
1553640089;55.664;35.156;26.367;56.641;56.641
1553640089;48.34;34.18;28.32;39.551;47.852
1553640089;62.988;31.25;27.344;44.434;42.48
1553640089;56.152;33.691;26.367;59.57;47.363
1553640089;45.41;34.668;27.832;59.082;49.805
1553640089;43.945;35.156;27.832;54.199;46.875
1553640089;45.41;35.156;29.297;53.711;45.41
1553640089;57.617;34.18;31.25;50.293;49.805
1553640089;54.688;37.109;32.227;59.082;54.688
1553640089;54.199;39.062;31.25;64.453;53.223
1553640089;55.664;34.668;29.297;44.922;46.387
1553640089;44.922;33.203;30.762;38.574;44.434
1553640089;51.758;35.156;33.691;59.082;50.781
1553640089;48.828;36.133;30.273;49.805;45.41
1553640089;42.969;37.598;27.832;21.973;38.086
1553640089;50.781;37.109;33.203;31.738;42.48
1553640089;49.316;37.109;35.156;47.363;38.086
1553640089;51.758;37.598;35.156;55.664;29.297
1553640089;53.711;39.062;30.762;56.641;20.508
1553640089;40.527;39.551;26.367;55.176;13.672
1553640089;59.082;41.016;28.809;36.133;15.625
1553640089;54.199;41.016;29.297;28.809;17.578
1553640089;21.484;34.668;26.367;16.602;11.719
1553640089;32.227;33.691;26.367;-2.93;9.766
1553640089;35.645;37.109;26.855;2.93;10.254
1553640089;33.203;37.109;28.32;9.766;12.695
1553640089;37.109;38.086;31.738;11.719;16.113
1553640089;44.434;38.574;33.203;21.973;19.043
1553640089;53.223;37.598;33.203;19.043;25.391
1553640089;53.711;38.086;36.133;20.02;29.297
1553640089;41.016;37.598;35.645;27.832;30.273
1553640089;38.574;33.203;33.691;43.457;26.855
1553640089;35.156;29.785;34.668;39.062;24.902
1553640089;29.785;31.738;37.598;36.621;31.25
1553640089;34.668;34.668;36.133;39.551;35.156
1553640089;40.039;31.738;32.227;26.367;31.25
1553640089;42.969;26.855;35.645;28.32;31.25
1553640089;38.574;31.738;41.504;27.832;39.551
1553640089;34.18;36.133;42.969;20.508;44.434
1553640089;35.156;35.645;44.434;31.25;41.504
1553640089;40.039;35.645;40.527;50.781;36.621
1553640089;32.715;34.668;35.156;51.27;43.945
1553640089;38.574;35.156;37.109;29.297;58.594
1553640089;55.664;34.668;39.551;21.484;54.688
1553640089;47.363;32.715;41.016;26.855;54.199
1553640089;44.922;32.715;44.434;44.434;71.777
1553640089;45.41;31.738;42.969;52.734;75.684
1553640089;30.762;27.832;38.086;33.691;61.035
1553640089;41.504;28.32;34.668;31.738;54.199
1553640089;50.781;33.203;32.227;54.199;53.223
1553640089;45.898;31.25;34.18;58.594;56.641
1553640089;49.805;28.32;37.598;69.824;66.406
1553640089;47.363;30.273;36.133;66.895;62.988
1553640089;42.48;33.203;33.691;35.645;61.035
1553640089;41.504;35.156;34.18;30.762;68.359
1553640089;43.457;31.738;32.715;46.875;73.242
1553640089;43.457;28.809;29.297;47.852;68.359
1553640089;47.852;29.297;24.902;48.34;65.918
1553640089;52.246;24.414;26.855;55.664;67.871
1553640089;45.898;20.996;37.109;48.828;70.801
1553640089;45.898;25.391;38.574;66.406;73.73
1553640089;57.129;28.32;36.621;75.684;69.336
1553640089;52.246;29.785;36.621;71.777;66.895
1553640089;51.27;30.762;35.645;74.219;65.918
1553640089;47.363;27.832;36.621;62.012;62.012
1553640089;44.922;26.855;38.574;55.664;60.059
1553640089;55.664;29.297;37.109;53.223;52.246
1553640089;46.875;29.785;36.133;46.875;41.992
1553640089;34.18;27.832;34.18;41.992;38.574
1553640089;41.992;30.273;35.645;46.875;29.785
1553640089;43.945;27.344;34.18;51.758;19.531
1553640089;48.828;23.438;31.25;48.828;13.184
1553640089;48.828;27.832;35.156;37.598;5.859
1553640089;31.738;30.273;32.715;23.926;-10.742
1553640089;36.133;27.344;32.227;39.062;-26.367
1553640089;41.992;26.367;31.738;39.551;-36.621
1553640089;37.598;27.832;32.227;22.461;-37.598
1553640089;39.062;26.855;37.598;28.32;-41.992
1553640089;35.156;28.32;35.156;21.973;-45.898
1553640089;34.18;30.762;32.715;3.906;-38.086
1553640089;29.785;31.738;34.18;8.789;-34.18
1553640089;18.066;29.297;36.133;17.578;-35.645
1553640089;21.484;29.297;33.691;6.836;-28.809
1553640089;22.949;35.156;30.762;1.465;-24.414
1553640089;27.832;37.598;33.691;18.066;-15.625
1553640089;35.156;36.133;35.156;16.113;-0.488
1553640089;30.273;34.668;34.18;-1.953;1.953
1553640089;23.438;34.668;34.668;4.395;2.93
1553640089;21.484;38.086;37.109;21.973;9.766
1553640089;24.902;38.086;36.133;11.719;22.949
1553640089;29.297;36.621;32.715;-0.977;23.438
1553640089;23.438;36.621;30.762;5.371;19.043
1553640089;44.434;35.645;31.738;6.836;27.344
1553640089;39.551;30.762;32.227;4.883;33.691
1553640089;14.648;31.25;28.32;28.32;36.621
1553640089;15.137;32.715;27.832;32.715;39.551
1553640089;14.16;30.273;31.25;14.648;48.34
1553640089;23.926;31.25;34.668;16.602;58.594
1553640089;26.367;32.227;36.621;16.602;65.43
1553640089;24.902;29.785;35.156;19.531;67.383
1553640089;26.367;30.762;33.203;33.203;72.754
1553640089;28.32;34.668;31.25;49.805;76.66
1553640089;30.273;34.18;34.668;56.152;81.055
1553640089;37.598;35.156;34.18;28.809;87.891
1553640089;35.645;35.156;31.25;23.438;90.332
1553640089;41.016;32.227;34.18;47.363;92.773
1553640089;50.293;35.645;36.621;53.223;91.797
1553640089;37.598;34.668;35.156;54.199;88.867
1553640089;28.809;29.785;33.203;59.082;84.473
1553640089;31.25;32.227;32.715;63.965;76.66
1553640089;36.621;34.18;32.715;69.336;72.754
1553640089;32.715;34.18;35.156;65.43;74.707
1553640089;32.715;36.621;37.598;70.801;69.824
1553640089;37.109;36.621;35.645;89.844;64.941
1553640089;29.785;33.691;33.203;67.871;66.895
1553640089;27.832;34.668;33.691;44.434;68.848
1553640090;29.297;34.668;32.715;46.387;62.5
1553640090;43.457;32.715;33.203;41.992;55.176
1553640090;41.016;32.227;31.25;41.016;47.852
1553640090;27.344;32.227;27.832;63.965;39.551
1553640090;33.691;33.691;30.762;68.848;30.273
1553640090;30.762;30.273;31.738;39.062;17.578
1553640090;35.645;30.273;35.156;36.133;16.602
1553640090;34.18;35.156;37.109;41.504;18.066
1553640090;22.461;33.203;34.18;24.414;6.836
1553640090;31.25;32.227;34.18;29.785;0.488
1553640090;35.645;35.156;37.109;48.828;-7.324
1553640090;31.25;35.645;38.086;41.504;-8.301
1553640090;35.645;35.645;39.062;34.668;-3.906
1553640090;37.109;40.527;41.992;21.973;-12.207
1553640090;26.367;40.527;39.551;18.066;-19.531
1553640090;27.344;35.156;37.598;21.973;-21.973
1553640090;41.504;36.621;36.133;17.578;-22.949
1553640090;37.598;35.156;32.715;24.902;-32.715
1553640090;20.508;33.691;35.645;19.531;-46.875
1553640090;27.344;34.668;35.645;-4.395;-51.27
1553640090;24.902;35.645;33.203;-4.883;-58.594
1553640090;20.996;35.645;37.598;-2.93;-68.848
1553640090;25.879;34.668;39.062;-2.441;-66.406
1553640090;32.715;34.668;33.203;3.418;-65.918
1553640090;26.367;35.645;32.715;-26.855;-59.57
1553640090;4.395;35.156;36.621;-47.363;-40.039
1553640090;6.348;33.203;35.156;-36.621;-23.926
1553640090;18.066;32.227;33.691;-22.461;-10.742
1553640090;25.391;32.227;32.227;-9.766;0.977
1553640090;26.367;33.203;29.297;-11.23;13.672
1553640090;17.09;33.691;31.738;-5.371;25.391
1553640090;17.578;36.133;30.762;8.301;41.016
1553640090;25.879;40.039;28.809;15.625;55.664
1553640090;38.574;41.016;31.738;19.531;63.477
1553640090;35.156;41.992;35.645;25.391;59.57
1553640090;21.973;37.598;31.738;25.879;58.105
1553640090;41.016;35.156;31.738;25.879;66.895
1553640090;38.086;37.109;34.18;35.156;72.754
1553640090;27.832;36.621;33.203;56.641;67.383
1553640090;38.574;34.18;33.203;49.316;63.965
1553640090;34.18;36.133;31.738;33.203;66.406
1553640090;31.738;40.527;26.367;16.602;76.172
1553640090;41.504;35.156;21.484;11.23;83.008
1553640090;41.992;33.203;24.414;17.578;79.102
1553640090;41.504;39.062;27.344;23.926;81.055
1553640090;41.016;38.574;30.273;41.504;90.82
1553640090;37.109;33.203;33.691;44.434;93.75
1553640090;43.945;30.273;34.668;48.34;90.332
1553640090;42.48;33.691;27.344;57.129;90.82
1553640090;30.273;40.527;20.996;55.176;90.82
1553640090;31.738;41.992;30.273;58.105;92.285
1553640090;41.016;44.434;37.109;54.199;93.75
1553640090;45.898;41.504;36.621;72.754;87.891
1553640090;48.828;38.086;34.18;97.656;81.543
1553640090;47.363;37.598;33.691;71.289;83.008
1553640090;52.246;35.645;30.273;52.734;80.078
1553640090;67.871;30.762;30.762;61.035;82.031
1553640090;47.852;35.156;36.133;64.453;82.031
1553640090;33.203;41.992;37.598;57.617;74.707
1553640090;43.457;42.48;39.062;59.082;66.406
1553640090;56.641;43.945;41.016;47.363;56.152
1553640090;59.082;41.016;39.551;40.039;46.387
1553640090;39.062;37.598;38.086;45.41;38.574
1553640090;28.809;36.133;41.992;52.246;29.785
1553640090;35.645;38.574;41.504;82.031;17.578
1553640090;50.293;38.574;35.645;68.359;11.23
1553640090;37.598;35.156;36.133;34.18;11.23
1553640090;24.902;33.203;38.574;38.086;6.836
1553640090;31.738;33.203;35.645;52.734;-5.371
1553640090;40.527;36.621;35.645;56.152;-6.836
1553640090;35.156;39.062;32.227;31.25;-5.371
1553640090;38.086;38.574;25.879;8.789;-2.93
1553640090;37.598;37.598;29.785;20.02;-8.301
1553640090;41.992;39.551;31.738;37.109;-5.371
1553640090;58.105;43.457;27.832;46.875;15.625
1553640090;57.129;42.48;31.738;40.527;7.324
1553640090;28.32;35.156;40.039;26.855;-25.879
1553640090;1.465;26.367;40.039;24.902;-49.805
1553640090;-3.906;23.438;39.062;16.602;-51.758
1553640090;13.672;21.484;28.32;11.23;-28.809
1553640090;13.672;19.043;24.414;-22.949;-30.762
1553640090;-12.207;12.207;34.668;-50.293;-49.805
1553640090;-12.695;4.883;33.203;-38.086;-25.879
1553640090;-12.695;1.953;32.227;-24.902;-16.113
1553640090;-10.742;-5.371;40.527;-5.371;-18.066
1553640090;-14.16;-8.301;35.156;-4.883;-6.348
1553640090;-30.273;-5.859;29.297;-21.973;-6.836
1553640090;-29.297;-2.441;42.48;-18.555;-4.395
1553640090;-32.715;-15.625;46.387;-2.93;3.418
1553640090;-30.762;-25.391;38.574;-14.648;8.301
1553640090;-17.578;-18.066;36.133;-3.906;14.16
1553640090;-25.391;-17.09;40.039;30.762;8.789
1553640090;-31.738;-16.602;38.574;21.484;12.207
1553640090;-10.254;-28.32;32.715;8.789;34.18
1553640090;-1.953;-27.832;37.109;15.137;34.18
1553640090;-12.695;-7.324;39.062;25.391;28.809
1553640090;5.371;-3.906;39.062;24.902;41.992
1553640090;3.906;-2.93;41.504;3.418;44.922
1553640090;2.93;1.465;34.668;-3.418;41.504
1553640090;18.066;0;26.855;18.066;54.199
1553640090;18.066;8.789;27.832;28.32;62.012
1553640090;24.414;3.906;41.992;31.738;67.383
1553640090;27.832;-23.926;50.293;34.668;73.242
1553640090;26.855;-10.254;40.527;36.621;75.684
1553640090;36.621;20.02;37.598;49.805;81.543
1553640090;30.762;15.625;40.039;65.918;83.984
1553640090;20.996;9.766;37.109;55.176;81.055
1553640090;32.715;11.719;31.25;49.316;77.637
1553640090;28.809;15.625;30.273;59.57;79.59
1553640090;25.391;14.648;38.574;69.336;88.379
1553640090;29.297;2.441;43.945;78.125;92.773
1553640090;37.109;3.418;46.387;65.43;84.961
1553640090;51.27;-18.066;44.434;78.613;84.473
1553640090;61.035;-33.203;51.758;99.121;99.121
1553640090;64.453;-15.137;55.664;89.844;97.656
1553640090;72.266;4.883;43.945;88.867;79.59
1553640090;69.824;57.129;25.391;97.168;71.777
1553640090;45.41;71.289;22.949;79.59;59.57
1553640090;28.809;56.152;40.039;58.594;53.711
1553640090;27.832;44.922;41.992;47.363;40.039
1553640090;27.832;34.668;41.992;45.41;23.438
1553640090;26.855;31.25;41.992;61.035;21.973
1553640090;36.133;36.133;41.992;66.406;28.809
1553640090;57.129;20.02;44.922;64.453;29.297
1553640090;60.059;-26.367;27.344;61.523;23.926
1553640090;67.871;10.254;21.973;58.594;27.344
1553640090;54.199;88.379;44.922;70.801;17.578
1553640090;17.578;92.773;53.711;74.707;3.418
1553640090;6.348;80.078;31.25;53.223;-18.066
1553640090;12.695;87.402;19.531;23.926;-33.691
1553640090;16.113;92.285;31.738;18.555;-26.855
1553640090;23.438;83.008;32.715;19.043;-16.602
1553640090;20.996;75.195;36.621;0;-17.578
1553640090;12.695;80.566;38.574;8.789;-27.832
1553640090;27.344;81.055;32.715;7.812;-30.273
1553640090;24.902;91.797;32.715;-7.324;-31.25
1553640090;26.367;86.914;34.18;9.277;-31.738
1553640090;30.273;81.055;32.715;25.879;-25.879
1553640090;22.461;104.004;30.273;14.648;-18.066
1553640090;23.926;113.281;25.879;-12.695;-4.883
1553640090;32.715;117.676;27.832;-16.602;11.23
1553640090;26.367;121.582;30.273;6.836;18.555
1553640090;30.762;103.516;21.484;36.621;22.949
1553640090;31.25;91.797;14.16;25.391;34.18
1553640090;9.277;98.633;24.414;7.324;35.156
1553640090;28.32;94.727;33.691;25.879;36.621
1553640090;41.016;94.238;36.133;50.293;47.852
1553640090;31.25;98.633;38.086;54.199;46.387
1553640090;37.109;97.656;37.109;24.902;44.922
1553640090;21.973;97.168;36.133;4.883;40.527
1553640090;19.043;89.844;34.18;2.441;40.527
1553640090;29.785;84.961;33.691;1.953;47.363
1553640090;33.203;74.707;26.367;13.184;54.199
1553640090;37.598;61.035;13.672;21.973;65.43
1553640090;48.34;46.875;24.414;47.363;68.359
1553640090;53.711;58.105;56.641;54.199;66.406
1553640090;31.25;104.004;51.758;38.574;61.035
1553640090;12.207;115.234;16.602;31.738;48.34
1553640090;23.438;104.004;25.391;44.434;46.875
1553640090;27.344;94.727;45.41;19.531;50.293
1553640090;11.23;85.449;41.016;-15.625;49.316
1553640090;14.16;77.637;39.062;-9.277;46.387
1553640090;12.695;75.195;40.039;-7.324;40.039
1553640090;4.395;77.637;34.18;5.371;30.273
1553640090;0.488;78.613;29.785;15.625;25.879
1553640090;2.441;81.055;37.598;11.23;38.574
1553640090;-16.113;81.055;42.969;-9.277;22.949
1553640090;-44.922;77.637;43.945;-25.879;-15.625
1553640090;-39.062;74.219;44.922;-23.438;-16.602
1553640090;-35.645;71.289;41.504;-7.812;-3.906
1553640090;-37.109;68.848;32.715;-17.09;-10.742
1553640090;-50.781;63.965;30.762;-49.805;-34.18
1553640090;-55.176;60.059;24.414;-45.41;-42.969
1553640090;-53.711;59.57;1.953;-34.18;-41.016
1553640090;-53.711;53.223;8.789;-41.504;-45.41
1553640090;-61.523;42.48;33.203;-42.48;-64.453
1553640090;-53.223;25.879;21.973;-43.457;-67.871
1553640090;-39.062;45.898;9.277;-49.805;-56.152
1553640090;-56.152;84.473;1.953;-51.27;-56.641
1553640090;-60.547;84.473;2.441;-36.133;-65.43
1553640090;-40.039;73.242;19.043;-35.645;-67.871
1553640090;-47.852;61.523;35.156;-49.316;-73.242
1553640090;-51.27;50.781;33.691;-48.828;-77.148
1553640090;-32.227;49.316;18.066;-43.945;-73.73
1553640090;-28.32;48.828;12.207;-44.434;-69.336
1553640090;-24.902;44.922;14.16;-31.738;-55.664
1553640090;-9.277;46.387;18.555;-12.695;-42.48
1553640090;-2.441;41.992;19.531;-7.812;-43.945
1553640090;-1.465;36.133;16.602;-9.766;-42.48
1553640090;12.695;35.645;20.02;-0.488;-34.668
1553640090;23.438;35.156;20.02;12.695;-35.156
1553640090;22.949;36.621;12.695;36.133;-31.25
1553640090;20.996;47.852;21.973;32.715;-24.902
1553640090;26.855;56.641;31.25;-1.953;-20.996
1553640090;15.625;54.199;22.461;-11.719;-19.043
1553640090;8.301;43.945;10.742;-12.207;-18.066
1553640090;20.508;41.504;6.348;-6.348;-10.254
1553640090;30.273;41.992;8.789;2.93;4.395
1553640090;28.32;35.156;-1.465;-2.441;26.367
1553640090;23.926;30.762;-13.672;-0.488;43.457
1553640090;30.273;36.133;10.742;13.184;45.898
1553640090;23.926;34.18;38.574;16.113;37.598
1553640090;33.691;27.832;50.293;30.762;48.828
1553640090;47.852;34.668;47.363;46.387;58.105
1553640090;29.785;46.387;28.32;33.203;48.828
1553640090;32.227;47.363;19.043;27.832;41.504
1553640090;43.945;38.574;19.043;28.32;37.109
1553640090;27.832;31.25;13.184;13.672;36.621
1553640090;15.137;30.762;15.625;13.672;48.34
1553640090;16.113;31.738;19.043;18.066;54.199
1553640090;28.809;25.879;12.695;29.785;55.664
1553640090;39.062;25.879;22.461;44.434;65.43
1553640090;35.645;32.227;26.367;40.527;71.289
1553640090;41.992;32.715;19.043;36.621;74.707
1553640090;44.434;24.902;25.391;39.551;72.754
1553640090;38.086;16.602;24.902;43.945;72.266
1553640090;46.875;22.949;32.715;54.688;84.473
1553640090;58.105;34.668;39.062;53.711;80.078
1553640090;51.758;34.18;33.691;43.945;70.312
1553640090;35.156;31.25;30.762;47.363;70.801
1553640090;27.832;21.973;28.809;49.316;70.312
1553640090;28.32;22.461;25.879;47.852;68.848
1553640090;36.133;23.926;24.414;51.27;62.012
1553640090;45.41;16.602;29.297;44.434;60.059
1553640090;42.48;22.949;15.137;44.922;61.523
1553640090;44.434;23.438;6.836;56.152;63.965
1553640090;49.316;18.066;21.484;49.805;56.152
1553640090;39.062;17.09;31.25;54.688;51.758
1553640090;37.109;18.066;45.41;55.664;49.316
1553640090;40.039;26.855;44.922;52.734;46.875
1553640090;48.34;31.738;40.039;58.594;44.434
1553640090;58.105;27.832;37.109;53.223;38.086
1553640090;49.316;24.902;35.645;53.223;33.691
1553640090;38.574;22.949;33.203;51.27;29.297
1553640090;50.781;23.926;26.855;51.758;29.297
1553640090;46.875;23.438;30.762;62.012;20.508
1553640090;34.668;21.973;31.25;39.062;14.648
1553640090;41.504;19.043;34.668;23.438;19.531
1553640090;39.062;16.113;41.016;35.645;16.602
1553640090;36.133;20.996;40.039;40.039;9.277
1553640090;39.551;26.855;36.621;33.203;5.859
1553640090;37.109;24.902;31.25;25.879;1.465
1553640090;36.621;20.508;31.738;30.762;-0.488
1553640090;34.18;19.043;24.902;35.645;-6.836
1553640090;33.691;22.461;26.367;26.855;-19.043
1553640090;35.156;24.414;42.969;15.137;-20.02
1553640090;35.645;24.414;33.691;13.184;-13.184
1553640090;27.344;19.043;23.438;17.09;-9.277
1553640090;20.508;9.277;27.344;20.508;-7.812
1553640090;24.902;15.137;34.18;11.719;-4.395
1553640090;18.066;22.949;39.062;6.348;1.953
1553640090;16.113;22.949;34.668;6.348;9.766
1553640090;27.344;24.902;34.668;6.348;15.625
1553640090;25.391;23.438;42.48;12.695;22.949
1553640090;23.438;22.461;49.316;16.113;33.691
1553640090;22.949;21.973;41.016;21.484;37.598
1553640091;26.367;22.949;36.133;26.367;29.297
1553640091;27.832;24.414;35.645;28.32;23.926
1553640091;25.391;25.391;34.668;28.32;34.668
1553640091;24.414;27.344;32.227;9.766;38.574
1553640091;22.949;27.832;27.344;13.672;36.133
1553640091;26.367;20.996;30.273;40.527;58.594
1553640091;44.922;20.508;41.504;49.316;79.102
1553640091;32.227;30.762;45.41;23.438;56.152
1553640091;9.277;33.203;34.18;-2.93;26.855
1553640091;17.578;30.762;29.785;3.906;28.32
1553640091;20.508;35.645;33.203;22.461;34.18
1553640091;17.09;46.387;34.18;20.508;34.668
1553640091;11.23;51.27;29.785;0.488;27.832
1553640091;20.508;53.223;32.227;-11.23;22.949
1553640091;11.719;58.594;33.691;-12.207;16.602
1553640091;2.93;60.547;35.645;-5.371;17.578
1553640091;4.395;65.918;40.039;-10.254;16.113
1553640091;0.977;70.312;37.598;-16.602;6.836
1553640091;5.371;74.219;39.062;-20.996;6.836
1553640091;-6.836;81.543;37.109;-35.645;-6.348
1553640091;-14.648;84.961;36.133;-32.227;-12.695
1553640091;-3.906;86.914;38.086;-9.766;-5.371
1553640091;-2.93;94.727;40.527;-9.277;-0.488
1553640091;-12.207;96.191;42.48;-37.598;-14.648
1553640091;2.93;95.215;38.086;-36.621;-17.09
1553640091;15.625;102.539;37.109;-16.602;-1.465
1553640091;21.973;104.98;39.062;-6.836;-4.883
1553640091;24.414;94.238;41.016;2.93;-12.207
1553640091;23.438;84.961;41.016;21.973;-1.465
1553640091;34.18;83.984;38.574;34.668;15.137
1553640091;48.828;77.637;36.621;41.504;19.531
1553640091;68.848;72.754;33.203;53.711;34.18
1553640091;103.027;68.359;30.762;75.684;59.57
1553640091;116.211;61.035;33.203;87.891;70.801
1553640091;114.258;52.246;34.18;88.379;62.988
1553640091;125;41.992;27.832;116.699;74.219
1553640091;139.16;32.227;28.809;130.859;99.121
1553640091;149.414;25.391;29.785;116.699;104.004
1553640091;150.879;20.996;26.855;121.094;101.074
1553640091;166.016;20.02;27.344;134.277;107.91
1553640091;169.434;19.043;24.414;138.184;111.816
1553640091;173.34;22.949;27.344;144.531;116.211
1553640091;176.758;20.996;37.109;152.832;112.305
1553640091;176.27;15.137;38.574;151.367;104.492
1553640091;169.922;12.207;33.691;147.949;106.934
1553640091;154.785;11.719;36.133;155.762;113.281
1553640091;145.02;8.789;34.668;163.574;112.793
1553640091;143.066;7.324;36.133;139.648;108.398
1553640091;140.137;7.324;41.504;120.117;108.398
1553640091;136.719;8.301;38.086;125;106.445
1553640091;135.254;9.766;36.133;104.492;107.422
1553640091;128.418;10.742;39.062;99.609;106.934
1553640091;120.117;10.254;39.062;100.098;105.957
1553640091;118.652;7.324;40.527;91.797;111.816
1553640091;120.117;8.301;40.527;107.91;115.723
1553640091;113.77;7.812;39.551;101.074;108.887
1553640091;108.398;5.371;39.062;87.402;101.074
1553640091;103.516;7.324;37.598;103.516;95.215
1553640091;96.68;4.883;39.551;111.328;96.68
1553640091;92.285;6.836;42.969;96.191;98.633
1553640091;98.145;9.766;46.875;88.379;96.68
1553640091;93.75;8.789;44.922;90.82;102.539
1553640091;78.613;8.301;41.016;96.68;105.469
1553640091;81.543;10.254;42.969;103.516;100.098
1553640091;87.891;13.184;41.016;97.168;97.656
1553640091;82.52;12.207;37.109;82.031;97.656
1553640091;75.195;10.254;39.551;84.961;97.168
1553640091;74.219;8.301;40.527;88.379;100.586
1553640091;74.707;9.766;41.504;76.66;97.168
1553640091;72.754;12.207;41.504;66.895;89.355
1553640091;76.66;12.207;40.039;63.477;92.773
1553640091;74.707;12.207;40.039;67.871;89.355
1553640091;66.895;14.648;39.551;78.125;82.031
1553640091;62.988;15.137;36.133;76.66;80.078
1553640091;55.664;12.695;37.598;74.219;78.125
1553640091;51.27;11.719;39.062;72.754;76.66
1553640091;51.27;15.137;39.551;62.012;69.824
1553640091;61.523;18.066;42.48;57.129;65.43
1553640091;59.57;18.555;43.457;55.664;66.895
1553640091;45.898;16.113;43.457;60.059;65.43
1553640091;44.922;14.16;41.504;50.781;59.082
1553640091;45.898;16.113;42.48;48.34;51.758
1553640091;39.062;18.555;43.457;66.406;43.945
1553640091;35.156;20.996;41.992;71.777;41.504
1553640091;34.18;18.555;40.527;60.547;40.527
1553640091;39.551;20.996;38.086;45.41;32.715
1553640091;41.504;24.414;39.062;29.297;31.738
1553640091;34.668;20.996;41.504;26.855;28.32
1553640091;29.785;20.02;41.504;37.109;22.949
1553640091;32.227;22.461;39.551;39.062;20.508
1553640091;30.273;20.996;39.062;40.527;11.23
1553640091;28.809;19.531;41.016;32.715;11.23
1553640091;33.691;21.973;39.551;32.715;19.043
1553640091;33.691;21.484;38.086;42.48;22.461
1553640091;27.344;20.02;36.621;36.621;16.113
1553640091;31.738;19.531;36.133;37.109;16.113
1553640091;38.574;20.02;37.598;40.527;28.32
1553640091;57.617;20.508;35.156;41.504;35.156
1553640091;52.734;23.438;35.645;32.227;26.855
1553640091;24.902;23.438;37.598;23.926;15.625
1553640091;16.602;21.484;38.574;25.391;17.09
1553640091;16.602;22.461;38.574;26.855;24.414
1553640091;25.391;24.902;35.156;30.762;21.484
1553640091;18.555;23.438;35.645;41.504;10.742
1553640091;16.113;20.508;39.551;42.969;15.625
1553640091;15.137;21.973;39.551;24.414;20.996
1553640091;12.695;23.926;39.551;20.996;12.207
1553640091;25.391;24.902;39.551;20.508;18.066
1553640091;30.273;22.461;41.016;26.367;31.738
1553640091;20.02;20.02;40.039;28.32;32.227
1553640091;16.113;20.02;39.062;8.301;27.344
1553640091;18.066;20.02;38.086;9.766;26.367
1553640091;28.809;23.438;33.203;21.484;27.344
1553640091;32.715;27.832;33.691;18.066;35.645
1553640091;29.297;23.926;36.621;28.809;47.363
1553640091;29.785;18.555;34.668;51.758;43.945
1553640091;16.113;14.648;33.691;52.734;31.25
1553640091;15.625;16.602;34.18;35.645;32.227
1553640091;23.926;24.414;36.133;17.578;39.551
1553640091;16.602;27.344;40.039;20.508;36.133
1553640091;20.508;23.926;40.527;29.785;37.109
1553640091;17.09;29.785;36.133;33.203;37.109
1553640091;17.09;29.785;35.645;43.457;37.598
1553640091;19.531;24.414;40.039;36.133;32.715
1553640091;9.277;26.855;40.527;28.32;21.973
1553640091;4.395;21.484;37.109;39.062;22.461
1553640091;12.695;21.484;35.645;43.945;35.645
1553640091;18.555;25.879;36.621;38.086;39.551
1553640091;17.09;25.391;34.668;27.832;32.715
1553640091;37.109;25.391;34.668;45.898;40.039
1553640091;40.039;27.344;35.156;53.711;41.504
1553640091;40.527;28.32;38.574;56.641;44.922
1553640091;46.387;29.785;39.062;53.223;50.781
1553640091;38.574;21.973;37.598;41.504;43.457
1553640091;36.133;15.625;36.621;50.781;46.387
1553640091;47.363;17.578;34.18;57.129;50.781
1553640091;49.316;26.367;33.691;50.293;47.363
1553640091;41.016;41.504;30.273;42.969;40.039
1553640091;45.898;43.457;36.133;58.105;37.109
1553640091;41.992;38.574;42.969;77.637;36.133
1553640091;34.668;27.832;40.039;58.105;26.367
1553640091;37.109;24.902;37.598;36.133;19.531
1553640091;31.738;28.809;40.039;33.691;19.531
1553640091;24.902;22.461;42.48;30.273;18.066
1553640091;28.809;16.602;41.016;28.32;20.508
1553640091;37.598;12.207;45.41;40.039;18.066
1553640091;35.645;17.09;41.992;44.922;12.695
1553640091;27.832;33.203;39.551;28.809;14.648
1553640091;25.391;37.598;39.062;20.508;18.066
1553640091;37.109;37.109;36.133;47.363;22.949
1553640091;34.668;38.574;41.016;55.664;20.02
1553640091;24.902;28.32;44.434;24.414;13.672
1553640091;34.668;21.484;44.922;1.953;21.484
1553640091;26.367;32.227;44.434;4.395;20.508
1553640091;17.578;38.574;39.551;12.695;8.789
1553640091;15.137;38.574;38.574;16.602;4.883
1553640091;20.996;33.691;42.48;26.855;10.254
1553640091;25.391;36.133;40.527;31.25;15.625
1553640091;25.391;38.086;39.062;31.738;16.602
1553640091;28.809;36.133;38.086;29.297;20.508
1553640091;31.738;38.086;34.18;21.973;26.855
1553640091;32.227;38.574;36.621;18.555;32.715
1553640091;30.273;36.133;37.598;17.578;32.715
1553640091;28.809;33.691;37.109;23.438;36.621
1553640091;36.621;32.715;40.527;37.109;48.828
1553640091;36.133;32.227;41.992;41.992;51.27
1553640091;27.344;29.785;40.039;42.48;42.48
1553640091;23.926;34.18;41.992;40.039;34.18
1553640091;23.438;20.996;41.016;36.621;37.109
1553640091;25.391;-14.16;43.457;45.898;45.41
1553640091;28.32;9.766;43.457;42.969;41.992
1553640091;29.297;47.852;38.574;31.738;31.25
1553640091;26.367;51.27;35.156;29.297;29.785
1553640091;26.367;49.316;30.762;21.484;41.016
1553640091;19.531;42.48;30.273;24.414;44.434
1553640091;15.625;37.109;32.227;22.461;41.504
1553640091;26.367;33.203;33.691;25.879;44.922
1553640091;30.762;33.691;31.25;46.387;47.852
1553640091;31.25;34.18;26.367;38.574;48.828
1553640091;27.832;31.738;26.855;29.297;44.922
1553640091;27.832;29.785;32.227;34.668;45.41
1553640091;40.039;29.785;30.273;31.25;46.875
1553640091;42.48;31.738;30.273;33.203;49.316
1553640091;36.133;38.574;31.25;41.016;46.387
1553640091;38.574;41.016;30.273;45.898;47.363
1553640091;39.551;39.551;31.25;43.457;45.898
1553640091;38.574;41.504;29.785;36.621;41.992
1553640091;37.109;41.016;30.273;24.902;40.527
1553640091;30.762;35.156;28.809;24.414;30.273
1553640091;29.297;35.156;31.25;38.574;29.785
1553640091;35.156;37.109;36.133;32.227;38.574
1553640091;42.48;39.551;35.645;19.531;40.039
1553640091;32.715;33.203;33.691;33.691;31.738
1553640091;19.043;32.227;33.691;46.387;27.832
1553640091;37.109;38.086;34.18;33.691;34.668
1553640091;56.152;38.086;35.645;32.227;35.156
1553640091;40.527;39.062;36.621;39.551;30.273
1553640091;33.691;38.086;39.551;47.852;29.785
1553640091;37.109;41.016;39.062;57.129;33.691
1553640091;41.992;42.48;34.668;57.129;38.086
1553640091;49.805;40.039;36.133;43.945;32.715
1553640091;43.945;36.133;35.645;31.738;24.414
1553640091;42.48;33.691;33.691;31.738;22.949
1553640091;33.691;32.227;34.18;28.809;27.832
1553640091;23.926;31.738;35.156;38.086;25.879
1553640091;30.273;34.18;35.645;34.18;20.996
1553640091;38.086;30.273;34.18;24.414;26.855
1553640091;35.645;25.391;34.18;25.879;33.691
1553640091;41.016;29.785;35.645;27.832;32.715
1553640091;45.898;35.156;35.156;41.016;25.879
1553640091;40.039;36.133;31.25;40.039;24.902
1553640091;37.598;34.668;29.785;29.297;33.203
1553640091;33.691;29.785;28.809;21.484;30.762
1553640091;39.062;30.762;30.762;24.902;23.438
1553640091;35.645;26.367;34.668;34.18;21.484
1553640091;31.738;23.438;34.668;24.902;24.414
1553640091;39.062;29.785;36.133;31.25;35.645
1553640091;42.48;25.879;37.109;41.016;35.156
1553640091;41.016;22.949;33.691;40.527;29.297
1553640091;39.551;23.438;31.738;34.18;27.832
1553640091;36.621;21.973;31.738;22.949;30.762
1553640091;42.969;21.973;30.273;22.949;31.738
1553640091;42.48;21.484;29.785;22.949;25.391
1553640091;44.922;23.926;34.668;23.926;31.738
1553640091;45.41;30.273;37.109;28.32;38.086
1553640091;42.969;29.297;36.621;20.996;40.039
1553640091;38.086;27.344;36.133;24.902;35.645
1553640091;31.738;28.809;35.645;37.109;32.227
1553640091;39.062;23.926;34.18;46.387;36.133
1553640091;31.738;20.996;32.227;39.551;33.691
1553640091;23.926;20.508;30.762;23.926;32.715
1553640091;33.691;18.555;33.203;32.715;34.18
1553640091;44.434;17.578;35.156;32.227;36.621
1553640091;41.504;19.531;34.668;32.227;41.992
1553640091;34.18;26.367;37.109;42.969;39.062
1553640091;31.25;28.32;39.062;46.875;35.645
1553640091;28.32;24.414;38.574;49.805;31.25
1553640091;26.367;21.484;37.598;38.086;32.227
1553640091;40.039;24.414;33.691;38.086;37.109
1553640091;45.41;27.344;34.668;45.41;35.645
1553640091;42.48;28.809;37.109;48.34;36.621
1553640091;42.969;30.273;34.668;57.617;36.133
1553640091;35.645;30.273;32.227;50.781;39.062
1553640091;32.715;26.855;30.273;18.066;38.574
1553640091;39.062;23.926;31.738;19.043;26.367
1553640091;32.715;21.973;31.738;51.27;20.508
1553640091;26.855;20.508;31.738;50.293;30.273
1553640091;32.227;26.855;36.133;28.809;36.621
1553640091;37.598;31.25;35.645;20.508;26.855
1553640091;28.809;25.391;30.762;20.996;19.531
1553640091;25.879;23.926;28.809;28.32;26.855
1553640091;41.016;27.344;29.785;26.855;32.227
1553640091;43.457;29.785;34.18;28.32;32.715
1553640091;32.227;28.809;33.203;33.691;27.832
1553640091;22.461;25.879;30.762;33.203;24.414
1553640091;29.785;25.391;29.785;37.598;26.855
1553640092;31.738;23.926;29.297;44.434;18.555
1553640092;30.273;23.926;30.273;41.016;13.184
1553640092;30.273;25.879;32.227;26.367;18.555
1553640092;25.879;27.832;35.156;19.531;24.902
1553640092;27.832;26.367;35.645;24.414;23.926
1553640092;26.855;25.391;36.133;33.691;17.578
1553640092;21.484;27.344;36.621;37.109;15.625
1553640092;32.227;25.879;35.645;25.879;24.414
1553640092;38.086;24.902;34.668;28.32;20.508
1553640092;28.809;23.438;32.227;27.832;11.719
1553640092;30.273;21.973;34.18;20.02;15.137
1553640092;28.809;25.879;35.645;14.648;20.996
1553640092;28.32;27.344;33.203;18.066;20.508
1553640092;27.344;28.32;31.738;24.902;16.602
1553640092;29.297;29.785;32.227;23.926;21.973
1553640092;32.715;27.832;31.738;31.738;24.902
1553640092;33.691;28.809;31.25;36.133;30.273
1553640092;39.551;29.297;30.762;29.297;31.25
1553640092;35.645;28.32;30.273;15.137;27.832
1553640092;24.902;27.832;31.738;15.625;32.715
1553640092;30.762;26.855;33.691;30.273;35.156
1553640092;34.668;28.32;34.668;35.156;33.203
1553640092;28.32;30.762;33.203;32.715;35.156
1553640092;27.344;29.785;32.227;27.344;39.062
1553640092;27.344;29.297;34.18;24.902;37.598
1553640092;37.598;34.668;33.691;29.785;32.227
1553640092;39.062;32.227;32.715;35.645;33.691
1553640092;29.785;26.367;33.203;31.25;41.016
1553640092;26.855;25.879;35.156;25.879;47.363
1553640092;25.879;26.855;37.598;26.855;48.34
1553640092;29.785;28.32;37.598;30.273;43.457
1553640092;35.645;29.785;36.133;33.691;44.922
1553640092;38.086;32.227;35.645;36.621;51.27
1553640092;33.203;34.668;37.109;45.898;49.805
1553640092;39.551;34.18;37.109;51.27;43.945
1553640092;38.574;32.715;34.18;61.035;35.645
1553640092;26.855;33.691;37.109;56.641;34.668
1553640092;27.832;34.18;36.621;29.297;32.715
1553640092;25.879;33.691;37.109;27.344;22.461
1553640092;25.879;32.715;36.133;25.879;19.531
1553640092;31.738;36.133;32.715;19.043;24.414
1553640092;39.551;37.109;36.621;28.809;35.645
1553640092;41.504;31.738;36.133;45.898;31.738
1553640092;35.156;30.273;34.18;52.246;19.531
1553640092;33.203;34.668;31.738;41.016;27.832
1553640092;28.809;36.133;30.273;37.598;40.527
1553640092;23.926;34.18;29.785;41.504;38.086
1553640092;22.949;33.203;25.391;30.762;29.297
1553640092;20.508;30.762;24.902;29.297;24.902
1553640092;22.949;31.25;25.391;33.203;28.32
1553640092;22.461;32.715;24.414;33.691;31.25
1553640092;20.508;30.762;26.367;29.297;20.02
1553640092;25.879;27.344;27.344;26.367;14.16
1553640092;21.484;25.391;25.391;27.344;17.09
1553640092;23.438;30.273;25.879;28.32;21.484
1553640092;31.738;34.18;26.855;27.344;15.625
1553640092;20.02;32.715;25.391;30.273;5.859
1553640092;22.949;31.25;25.879;38.574;9.766
1553640092;27.344;30.762;25.879;31.738;15.137
1553640092;20.996;32.227;26.855;4.395;9.277
1553640092;20.996;34.18;27.832;8.301;8.301
1553640092;26.367;32.227;28.809;15.137;7.812
1553640092;30.762;32.227;28.809;17.09;10.742
1553640092;17.09;33.691;26.367;20.508;17.09
1553640092;15.137;35.156;26.367;18.555;15.137
1553640092;21.484;36.133;28.32;12.695;20.02
1553640092;28.32;37.598;26.367;16.113;25.879
1553640092;26.855;40.039;26.367;19.531;27.832
1553640092;13.672;39.062;28.32;13.672;25.391
1553640092;19.043;37.598;27.344;18.066;25.391
1553640092;29.785;36.133;27.832;29.297;29.297
1553640092;32.227;34.668;28.809;40.527;29.785
1553640092;35.156;34.668;28.809;39.062;31.738
1553640092;29.297;36.621;30.273;39.062;33.691
1553640092;30.762;36.133;30.273;38.086;32.227
1553640092;38.086;35.645;27.344;39.551;30.762
1553640092;46.875;37.598;27.344;29.297;28.32
1553640092;50.781;40.039;25.391;14.16;25.391
1553640092;31.738;38.574;20.02;35.645;23.926
1553640092;24.902;39.551;19.043;34.668;27.344
1553640092;32.715;42.48;17.09;19.531;36.621
1553640092;44.922;41.504;19.043;33.203;46.875
1553640092;45.898;40.039;26.855;37.598;34.18
1553640092;32.227;37.598;28.809;30.273;23.438
1553640092;27.344;38.086;25.879;19.531;32.715
1553640092;43.945;36.133;21.484;9.766;33.691
1553640092;44.434;36.621;20.996;11.23;39.062
1553640092;20.996;36.133;23.438;14.16;43.457
1553640092;18.555;34.668;24.902;15.625;42.969
1553640092;17.09;37.598;27.344;22.949;38.574
1553640092;18.066;38.086;28.809;33.691;32.715
1553640092;24.902;36.621;27.344;46.875;37.598
1553640092;23.926;36.621;24.414;56.152;36.133
1553640092;21.484;36.133;20.996;44.434;27.344
1553640092;20.996;34.18;18.555;15.625;19.043
1553640092;21.484;32.227;18.066;0.488;16.113
1553640092;18.555;32.227;18.555;16.113;20.508
1553640092;25.391;33.691;20.02;32.227;18.066
1553640092;33.691;36.621;20.508;15.625;15.137
1553640092;25.391;38.574;18.555;9.766;16.602
1553640092;22.949;37.109;19.043;12.207;18.066
1553640092;22.949;39.551;24.902;12.207;22.461
1553640092;21.973;41.504;27.832;22.949;19.043
1553640092;17.578;40.527;29.785;37.109;12.207
1553640092;18.555;39.551;29.785;24.414;12.207
1553640092;24.902;38.086;25.391;13.184;20.996
1553640092;24.902;37.109;24.902;23.438;22.461
1553640092;23.438;35.645;29.785;16.602;17.578
1553640092;16.602;34.668;29.297;4.883;20.02
1553640092;24.902;33.203;27.832;16.602;24.902
1553640092;29.297;34.668;30.762;26.855;25.391
1553640092;17.578;36.133;30.273;15.137;16.602
1553640092;16.602;34.18;30.762;26.367;17.578
1553640092;26.367;32.227;31.25;44.922;29.785
1553640092;39.551;34.18;28.32;41.016;31.738
1553640092;36.133;39.062;26.855;35.156;20.508
1553640092;24.902;37.109;28.32;24.414;18.066
1553640092;21.484;36.133;28.32;17.578;24.414
1553640092;32.227;35.645;29.785;18.555;31.25
1553640092;32.715;33.203;30.762;21.484;29.785
1553640092;25.879;32.227;26.855;16.113;24.902
1553640092;26.367;34.668;29.785;25.391;32.715
1553640092;26.367;34.668;33.691;30.273;36.621
1553640092;26.367;32.715;33.691;26.855;31.25
1553640092;27.832;34.18;33.203;40.527;28.32
1553640092;32.715;36.133;33.691;39.062;28.32
1553640092;35.156;31.738;33.691;30.762;26.855
1553640092;31.738;30.762;30.273;27.344;31.25
1553640092;30.762;37.109;27.832;28.32;27.832
1553640092;35.156;38.574;29.785;32.715;27.832
1553640092;36.621;33.203;31.25;36.621;37.598
1553640092;36.621;30.762;32.715;43.945;41.016
1553640092;33.203;31.25;34.668;35.156;38.574
1553640092;32.227;26.855;31.25;27.344;40.039
1553640092;31.738;25.879;24.902;27.832;36.133
1553640092;25.879;23.926;21.973;21.484;31.738
1553640092;25.391;24.414;22.461;27.344;35.645
1553640092;32.227;26.367;21.484;35.156;32.227
1553640092;32.715;28.32;23.438;25.879;31.738
1553640092;27.344;30.762;22.461;27.832;38.574
1553640092;19.531;28.32;23.926;46.875;32.715
1553640092;26.367;25.879;28.32;43.457;28.32
1553640092;29.297;26.367;25.391;30.762;30.273
1553640092;29.785;25.879;23.438;32.227;34.18
1553640092;35.645;24.414;24.902;41.504;33.203
1553640092;39.062;27.344;26.367;51.758;25.391
1553640092;46.875;29.785;24.902;53.711;22.461
1553640092;42.48;27.344;23.438;37.109;24.414
1553640092;28.809;26.855;24.902;9.277;26.367
1553640092;24.902;25.391;23.926;9.766;21.973
1553640092;23.438;24.902;25.879;28.32;25.879
1553640092;32.227;22.949;29.785;34.18;27.832
1553640092;36.621;24.414;27.832;33.691;30.762
1553640092;29.297;26.367;28.32;38.574;31.25
1553640092;30.762;24.902;25.879;41.992;22.461
1553640092;25.391;26.855;19.531;38.574;17.578
1553640092;17.578;22.461;22.949;37.598;21.484
1553640092;21.484;17.09;25.879;31.25;21.484
1553640092;21.484;20.996;24.902;25.879;12.695
1553640092;19.043;25.879;27.344;20.02;16.113
1553640092;11.719;23.926;26.367;15.137;31.25
1553640092;16.602;30.762;24.414;14.648;30.273
1553640092;25.391;31.738;34.18;15.625;17.578
1553640092;26.855;27.344;41.504;34.668;17.578
1553640092;35.645;30.273;34.18;33.691;26.367
1553640092;19.043;31.738;27.832;10.254;23.438
1553640092;-2.441;37.109;25.879;11.23;4.395
1553640092;13.184;36.621;32.227;24.902;9.766
1553640092;17.09;37.598;34.668;22.461;20.02
1553640092;2.441;35.156;34.668;17.09;10.742
1553640092;-9.277;32.715;39.551;4.395;-1.465
1553640092;-11.719;36.621;39.551;-16.602;-11.23
1553640092;-14.16;36.621;40.039;-17.578;-16.113
1553640092;-19.531;37.109;41.992;-16.602;-15.625
1553640092;-19.531;44.434;38.086;-17.09;-8.789
1553640092;-24.902;52.246;36.133;-32.227;-19.531
1553640092;-21.484;56.152;39.551;-33.203;-23.438
1553640092;-19.043;49.316;40.039;-15.625;-14.16
1553640092;-23.438;45.41;37.598;-26.855;-11.719
1553640092;-22.461;47.852;39.062;-27.344;-20.508
1553640092;-36.133;47.852;34.668;-30.273;-32.715
1553640092;-33.691;50.293;28.809;-36.621;-29.297
1553640092;-31.25;53.223;31.738;-22.461;-22.949
1553640092;-27.344;56.152;35.156;-25.879;-22.949
1553640092;-21.484;59.082;34.18;-41.016;-21.973
1553640092;-26.367;57.617;34.18;-39.551;-20.02
1553640092;-20.02;58.594;33.691;-28.809;-12.695
1553640092;-18.066;61.035;33.203;-21.484;-8.789
1553640092;-20.996;60.059;35.156;-19.043;-15.137
1553640092;-15.137;58.105;35.156;-11.23;-10.254
1553640092;-14.16;54.688;34.18;-7.324;0
1553640092;-13.672;51.27;25.391;-2.93;-0.977
1553640092;-9.277;49.805;26.367;17.09;0.977
1553640092;-4.395;46.875;31.738;11.719;6.836
1553640092;-4.883;43.457;24.414;-7.812;7.324
1553640092;8.789;41.504;24.414;1.465;10.742
1553640092;16.113;40.527;26.367;6.348;9.277
1553640092;8.301;40.527;32.227;10.254;9.766
1553640092;16.602;37.598;34.18;14.648;10.742
1553640092;22.949;38.574;33.203;19.043;19.043
1553640092;18.555;41.016;33.203;26.367;25.391
1553640092;27.344;39.062;32.715;30.273;27.344
1553640092;35.645;39.062;31.738;37.598;34.18
1553640092;32.227;38.086;30.762;44.922;36.133
1553640092;20.508;33.691;16.602;21.973;23.438
1553640092;16.602;32.227;14.648;9.766;9.277
1553640092;23.438;33.691;31.738;36.621;14.648
1553640092;43.457;28.809;34.668;58.594;37.109
1553640092;39.551;32.715;17.578;36.621;36.133
1553640092;-12.207;56.152;-2.441;-8.301;-3.418
1553640092;-1.465;68.848;31.738;-2.441;-3.906
1553640092;50.293;75.195;66.406;41.504;42.48
1553640092;39.551;62.5;49.805;35.645;41.992
1553640092;2.93;41.992;30.762;21.484;-5.371
1553640092;-35.156;57.129;38.086;-11.23;-42.969
1553640092;-83.496;62.988;62.012;-75.684;-83.008
1553640092;-89.355;123.047;102.539;-70.312;-79.59
1553640092;-84.961;151.855;114.746;-58.594;-72.754
1553640092;-118.164;65.918;196.777;-93.75;-115.234
1553640092;-152.832;66.895;583.496;-105.469;-144.531
1553640092;-176.758;102.051;967.773;-143.555;-166.992
1553640092;-187.012;128.906;-998.047;-179.688;-182.129
1553640092;-198.242;161.621;988.77;-187.988;-198.73
1553640092;-215.332;171.875;-998.047;-218.75;-221.68
1553640092;-215.332;179.688;999.512;-215.82;-212.402
1553640092;-221.191;200.684;999.512;-195.801;-207.031
1553640092;-228.516;201.172;999.512;-190.43;-223.633
1553640092;-228.027;201.66;999.512;-208.008;-230.469
1553640092;-231.934;202.148;999.512;-229.004;-220.703
1553640092;-231.445;196.289;999.512;-218.262;-204.102
1553640092;-218.75;203.613;999.512;-211.914;-199.219
1553640092;-208.496;192.871;999.512;-221.191;-203.125
1553640092;-205.078;180.664;999.512;-221.68;-199.707
1553640092;-195.801;178.223;999.512;-212.402;-190.43
1553640092;-198.242;172.852;999.512;-209.473;-196.777
1553640092;-201.172;167.48;999.512;-217.773;-209.961
1553640092;-200.684;161.133;999.512;-202.637;-198.242
1553640092;-207.52;156.738;-1000;-191.406;-185.059
1553640092;-204.59;151.855;987.793;-212.891;-183.105
1553640092;-194.824;142.09;-988.281;-195.312;-182.617
1553640092;-174.805;134.766;870.117;-172.852;-171.875
1553640092;-158.203;134.277;452.637;-187.988;-155.273
1553640092;-158.691;132.324;25.391;-187.5;-145.02
1553640092;-147.949;123.047;-382.812;-160.645;-140.137
1553640092;-138.672;106.934;-785.156;-145.02;-132.324
1553640092;-132.812;95.215;-970.703;-136.23;-123.047
1553640092;-123.535;89.355;-958.984;-131.836;-119.629
1553640092;-109.863;80.566;-964.355;-136.719;-111.816
1553640092;-94.727;65.918;-967.773;-118.164;-104.004
1553640092;-98.145;51.27;-966.797;-98.633;-101.074
1553640092;-81.543;51.758;-966.309;-89.844;-80.078
1553640092;-52.246;53.711;-966.309;-73.73;-59.57
1553640092;-55.176;50.781;-966.797;-71.777;-60.059
1553640092;-52.734;48.828;-966.309;-76.172;-56.641
1553640092;-44.434;45.41;-966.797;-63.965;-41.504
1553640092;-46.387;42.48;-966.797;-49.805;-34.668
1553640093;-35.645;40.527;-966.797;-41.504;-28.32
1553640093;-22.949;39.551;-966.797;-31.738;-17.09
1553640093;-19.531;40.527;-966.797;-33.691;-14.648
1553640093;-16.113;38.086;-966.797;-25.879;-12.695
1553640093;-17.09;32.715;-966.797;-24.902;-18.555
1553640093;-22.461;37.109;-966.797;-27.832;-22.949
1553640093;-11.23;44.434;-966.797;-11.719;-13.672
1553640093;8.789;44.922;-966.797;-1.465;1.953
1553640093;11.23;48.34;-966.797;-2.441;11.719
1553640093;4.883;48.828;-966.797;-7.324;6.348
1553640093;-0.977;43.945;-966.309;3.906;9.277
1553640093;2.441;38.574;-966.797;-2.441;18.555
1553640093;0.488;39.551;-964.844;-23.926;4.883
1553640093;4.395;47.363;-967.773;-12.695;1.953
1553640093;18.066;44.922;-956.055;5.859;17.578
1553640093;31.738;39.551;-896.973;12.695;25.391
1553640093;38.086;38.086;-835.938;21.973;24.414
1553640093;31.738;38.086;-797.363;39.062;21.484
1553640093;44.434;40.527;-763.184;40.527;37.598
1553640093;47.363;32.715;-723.633;37.598;48.828
1553640093;41.016;28.32;-681.152;43.457;43.945
1553640093;50.781;27.832;-642.09;46.875;50.781
1553640093;42.969;28.32;-614.258;38.574;49.316
1553640093;42.48;26.855;-586.914;37.109;50.781
1553640093;69.336;22.461;-551.27;68.359;74.219
1553640093;91.797;14.16;-519.043;88.867;80.566
1553640093;73.242;6.348;-490.723;66.895;60.547
1553640093;64.453;16.113;-471.68;81.543;70.312
1553640093;100.098;25.391;-452.637;104.492;103.027
1553640093;100.098;15.137;-426.758;77.148;93.75
1553640093;85.938;4.395;-395.996;71.289;75.195
1553640093;85.449;-0.488;-366.211;84.473;80.566
1553640093;93.75;0.488;-347.656;88.867;98.145
1553640093;96.191;-8.789;-323.242;93.75;96.68
1553640093;92.285;-25.879;-289.551;108.887;97.656
1553640093;122.07;-20.508;-282.227;140.625;133.789
1553640093;139.648;-13.184;-280.762;147.949;147.949
1553640093;128.418;-5.371;-266.113;122.559;126.465
1553640093;113.281;-11.23;-240.723;105.957;94.238
1553640093;124.023;-27.344;-215.332;127.93;101.562
1553640093;130.371;-34.668;-195.312;147.461;121.094
1553640093;126.465;-34.668;-182.129;151.367;125
1553640093;136.23;-27.832;-168.945;149.902;132.324
1553640093;148.438;-25.879;-154.785;158.203;131.836
1553640093;145.996;-29.297;-143.555;160.156;131.348
1553640093;147.949;-31.738;-131.836;181.641;142.09
1553640093;164.551;-29.785;-126.953;190.918;150.391
1553640093;159.668;-24.902;-125.488;162.109;144.043
1553640093;163.086;-25.391;-123.047;150.879;146.973
1553640093;170.898;-25.391;-118.652;156.25;157.227
1553640093;169.922;-20.508;-108.887;175.293;159.18
1553640093;170.898;-15.625;-119.629;175.781;157.227
1553640093;173.34;-13.672;-124.512;169.922;160.156
1553640093;179.199;-15.137;-94.727;180.664;166.504
1553640093;179.199;-20.508;-72.266;179.199;165.527
1553640093;175.293;-21.973;-65.918;168.945;154.297
1553640093;175.293;-31.738;-71.777;180.176;144.043
1553640093;172.852;-34.18;-74.219;183.594;153.809
1553640093;166.504;-27.832;-62.5;186.035;165.039
1553640093;165.527;-29.785;-59.082;174.805;151.367
1553640093;171.875;-27.832;-65.918;159.18;149.902
1553640093;176.758;-24.414;-70.312;174.316;170.41
1553640093;182.617;-26.367;-63.965;185.547;182.129
1553640093;195.312;-27.344;-56.152;190.918;186.523
1553640093;194.824;-26.367;-54.688;182.129;177.734
1553640093;193.359;-29.297;-48.34;188.965;166.992
1553640093;194.824;-33.203;-42.48;194.824;169.434
1553640093;187.5;-29.785;-41.016;182.129;176.27
1553640093;182.129;-30.762;-41.992;176.27;176.758
1553640093;185.059;-32.715;-33.691;181.641;173.34
1553640093;187.5;-31.738;-47.852;187.012;169.434
1553640093;179.688;-30.273;-53.711;193.848;169.922
1553640093;164.551;-29.785;-16.113;188.965;159.668
1553640093;159.668;-30.762;0;185.547;149.902
1553640093;152.344;-21.484;-8.789;164.062;153.32
1553640093;145.996;-16.602;-11.23;141.602;158.691
1553640093;155.762;-19.531;-11.719;154.297;157.227
1553640093;155.762;-14.648;-22.949;165.039;149.902
1553640093;143.066;-12.695;-20.508;159.668;144.043
1553640093;141.602;-15.137;-15.137;150.879;142.09
1553640093;129.883;-15.625;-12.695;132.812;136.719
1553640093;122.07;-12.207;-6.836;128.906;127.93
1553640093;124.023;-11.23;-4.395;124.512;118.164
1553640093;122.559;-7.812;-3.418;111.328;115.234
1553640093;125.488;-0.488;-7.324;118.164;115.723
1553640093;120.117;-2.93;-12.207;114.746;105.469
1553640093;109.375;-7.812;-14.16;104.004;98.145
1553640093;89.844;-6.348;-5.859;118.652;100.098
1553640093;95.703;-1.465;10.254;124.512;108.887
1553640093;113.281;3.906;13.672;119.141;111.816
1553640093;106.934;1.953;11.719;126.465;103.516
1553640093;106.934;-2.441;3.906;111.328;106.445
1553640093;106.934;-7.812;-0.977;94.238;111.816
1553640093;92.773;-7.812;0.488;103.027;106.934
1553640093;92.285;-3.418;0.977;119.141;102.051
1553640093;94.727;-0.488;9.766;113.77;99.609
1553640093;81.055;0.488;7.812;87.891;93.262
1553640093;74.707;0;2.441;76.172;90.332
1553640093;88.379;1.953;8.301;89.844;88.379
1553640093;108.887;5.859;9.766;97.168;86.914
1553640093;104.98;9.766;4.883;94.238;87.891
1553640093;91.797;9.277;10.254;90.82;90.82
1553640093;79.59;7.324;13.184;90.82;82.031
1553640093;66.406;8.789;14.16;89.844;76.172
1553640093;70.801;8.301;18.555;91.309;81.543
1553640093;70.312;9.277;16.602;83.496;80.078
1553640093;76.172;10.254;17.09;86.914;78.125
1553640093;87.402;11.23;22.461;90.332;77.637
1553640093;85.449;14.648;23.438;76.66;78.613
1553640093;78.613;10.254;23.926;67.383;83.984
1553640093;73.73;3.906;20.996;66.406;80.566
1553640093;65.918;8.301;17.09;62.988;71.777
1553640093;59.57;13.184;20.996;58.594;65.918
1553640093;72.266;13.672;24.902;69.336;65.918
1553640093;77.148;16.113;22.949;81.055;68.359
1553640093;73.242;16.113;24.414;76.66;65.918
1553640093;73.73;15.137;27.344;65.918;62.988
1553640093;70.801;18.066;26.367;61.035;66.895
1553640093;66.406;19.531;22.949;61.523;67.871
1553640093;61.035;16.602;22.461;61.523;61.523
1553640093;56.152;16.602;23.926;64.453;60.059
1553640093;51.758;19.531;20.02;68.848;60.547
1553640093;53.223;19.043;22.461;72.266;62.012
1553640093;56.152;19.043;27.344;56.152;61.523
1553640093;66.895;20.508;29.297;43.945;55.176
1553640093;77.148;21.484;35.156;64.453;48.828
1553640093;65.918;21.484;31.25;66.895;56.641
1553640093;50.293;22.949;29.297;58.105;61.035
1553640093;42.969;21.973;26.855;52.246;53.711
1553640093;41.016;21.484;13.672;37.598;52.246
1553640093;47.363;19.043;16.602;33.691;58.594
1553640093;56.641;18.555;29.785;42.969;58.105
1553640093;54.199;18.555;30.273;41.016;42.969
1553640093;42.969;19.043;36.133;31.25;35.645
1553640093;42.969;17.09;40.039;33.691;31.738
1553640093;37.109;17.578;33.691;37.598;33.203
1553640093;33.203;21.484;31.25;46.875;36.133
1553640093;45.898;20.508;34.18;68.359;36.133
1553640093;49.316;20.996;38.086;65.918;40.527
1553640093;49.316;22.461;35.645;37.598;46.387
1553640093;48.34;24.414;30.762;23.926;42.969
1553640093;42.48;23.438;32.715;29.785;40.527
1553640093;44.434;20.02;35.645;43.945;38.574
1553640093;40.527;21.484;31.25;44.434;38.574
1553640093;33.691;23.438;31.738;36.621;39.062
1553640093;37.109;21.973;37.598;50.293;34.18
1553640093;39.551;20.508;37.598;47.852;39.062
1553640093;33.691;25.391;38.086;54.199;43.457
1553640093;39.062;23.438;38.574;57.617;43.945
1553640093;40.039;20.02;38.574;40.527;41.016
1553640093;34.18;22.461;36.133;36.621;40.039
1553640093;38.086;21.973;29.297;34.668;42.48
1553640093;34.668;22.949;24.414;29.785;47.852
1553640093;39.062;24.902;35.156;34.668;47.363
1553640093;52.246;23.438;45.898;42.969;44.922
1553640093;54.199;15.137;38.574;54.199;51.758
1553640093;43.945;17.578;34.668;54.199;54.688
1553640093;43.457;26.367;37.109;34.668;47.363
1553640093;48.828;33.203;36.133;42.969;40.039
1553640093;34.668;34.668;35.156;45.41;39.551
1553640093;26.367;30.273;35.156;38.086;47.363
1553640093;34.668;26.855;34.18;32.227;51.27
1553640093;39.551;25.879;31.738;33.691;43.945
1553640093;42.48;24.902;31.738;42.48;40.527
1553640093;42.48;25.391;36.621;41.016;44.922
1553640093;45.41;27.832;39.551;48.34;50.293
1553640093;45.898;27.344;39.551;57.617;41.992
1553640093;38.574;25.879;41.992;54.688;35.645
1553640093;35.645;26.855;43.945;40.039;38.574
1553640093;36.621;29.785;42.48;39.062;45.898
1553640093;41.992;28.809;41.504;47.363;47.363
1553640093;51.758;26.367;41.016;55.664;41.016
1553640093;52.734;26.367;38.086;62.5;41.504
1553640093;51.27;27.344;40.039;68.359;50.293
1553640093;39.551;28.809;41.992;48.828;50.781
1553640093;32.227;29.297;39.062;26.367;39.062
1553640093;50.781;31.738;40.039;28.32;37.109
1553640093;48.828;32.227;42.48;38.086;42.969
1553640093;25.879;30.273;41.016;43.457;44.922
1553640093;28.32;29.785;41.016;36.621;37.598
1553640093;37.109;32.715;43.945;41.992;36.133
1553640093;28.32;31.25;39.551;36.133;36.621
1553640093;31.738;31.25;38.086;26.855;31.25
1553640093;46.875;33.691;42.48;33.203;29.297
1553640093;41.992;31.738;41.016;35.156;30.273
1553640093;47.363;28.809;37.598;38.086;35.645
1553640093;45.41;29.297;37.109;32.227;36.133
1553640093;31.25;32.715;36.133;17.09;26.855
1553640093;34.18;32.227;41.016;21.484;29.785
1553640093;32.227;26.855;46.875;34.668;31.738
1553640093;29.297;26.367;42.48;30.762;27.832
1553640093;36.133;31.25;39.062;27.344;29.785
1553640093;33.691;30.273;40.039;37.598;26.855
1553640093;27.344;32.227;40.039;31.25;18.555
1553640093;30.273;34.668;41.016;15.625;11.719
1553640093;24.902;31.25;44.434;13.184;13.184
1553640093;11.23;30.273;44.434;8.301;12.695
1553640093;8.301;33.203;46.387;7.324;14.16
1553640093;20.996;37.109;48.34;12.695;21.973
1553640093;23.926;37.109;46.875;9.277;23.438
1553640093;20.508;32.715;44.434;6.348;21.484
1553640093;21.484;29.297;42.969;24.414;20.02
1553640093;23.438;36.621;44.434;28.809;16.602
1553640093;26.367;38.574;44.922;15.137;14.648
1553640093;21.973;30.273;48.828;14.648;14.16
1553640093;25.391;29.785;51.27;22.949;15.625
1553640093;33.691;34.668;49.805;48.828;22.949
1553640093;36.621;35.156;44.922;48.34;22.949
1553640093;39.551;31.25;42.48;36.133;12.695
1553640093;38.086;28.809;43.457;46.387;2.441
1553640093;19.531;31.738;43.457;41.504;-2.93
1553640093;5.371;33.691;44.434;23.926;3.418
1553640093;12.695;36.133;47.363;-3.418;15.625
1553640093;6.836;36.621;45.898;-16.113;10.742
1553640093;0;32.715;42.48;-0.977;9.277
1553640093;2.441;32.227;41.504;7.324;13.184
1553640093;3.906;35.156;40.527;3.418;19.043
1553640093;8.789;35.645;41.992;-0.977;21.484
1553640093;15.625;34.668;43.945;0.977;17.578
1553640093;21.973;35.645;39.551;11.23;23.926
1553640093;26.855;37.109;39.551;19.531;29.785
1553640093;25.879;38.086;41.504;23.438;27.344
1553640093;22.461;38.086;38.574;30.273;26.855
1553640093;34.668;37.598;41.016;33.691;30.273
1553640093;36.133;38.574;43.945;40.527;24.902
1553640093;19.043;36.133;40.527;48.34;15.137
1553640093;14.648;32.715;39.551;30.762;10.254
1553640093;21.484;32.715;41.504;31.738;16.602
1553640093;27.344;32.715;42.969;30.762;27.344
1553640093;31.738;34.18;45.41;21.973;26.855
1553640093;32.227;36.133;40.527;34.668;18.555
1553640093;36.133;33.691;35.156;42.48;22.461
1553640093;32.227;29.785;30.273;29.297;30.273
1553640093;29.297;27.832;34.18;24.414;34.18
1553640093;35.645;27.832;44.434;37.109;31.25
1553640093;41.992;25.879;46.387;42.969;27.832
1553640093;34.18;25.391;46.875;42.48;27.832
1553640093;18.555;26.855;45.898;20.996;33.691
1553640093;21.973;26.367;49.316;8.301;38.574
1553640093;43.457;25.879;49.805;24.902;36.133
1553640093;41.016;22.949;43.457;34.668;29.785
1553640093;34.18;20.996;40.527;38.574;33.203
1553640093;42.48;18.555;39.062;54.688;39.551
1553640093;35.645;16.602;41.504;52.246;33.203
1553640093;43.457;20.02;42.48;34.668;33.203
1553640093;46.387;19.531;39.551;37.598;32.227
1553640093;42.969;17.09;39.062;34.18;31.25
1553640093;44.922;17.09;39.062;29.297;31.25
1553640093;37.598;18.066;37.109;36.133;23.438
1553640093;44.434;20.02;39.551;38.574;29.297
1553640093;41.504;20.508;40.527;25.879;37.598
1553640093;21.973;17.578;40.039;20.508;35.645
1553640093;26.855;15.137;39.551;34.668;35.645
1553640093;39.551;16.113;34.18;32.715;35.156
1553640093;29.297;17.578;37.109;18.066;36.133
1553640093;20.996;25.391;43.945;19.043;32.227
1553640094;37.598;26.855;46.875;36.133;32.227
1553640094;42.48;19.043;49.316;49.316;39.062
1553640094;31.738;16.602;46.875;50.781;41.016
1553640094;39.551;20.508;42.48;50.293;41.504
1553640094;37.109;22.949;40.039;34.18;32.227
1553640094;30.762;21.484;40.527;28.32;24.414
1553640094;34.18;24.902;42.48;39.551;25.879
1553640094;33.203;25.391;38.086;32.715;30.762
1553640094;32.227;23.926;37.109;31.738;27.344
1553640094;33.691;22.461;41.992;41.504;23.438
1553640094;35.156;20.996;46.387;48.828;29.297
1553640094;43.457;23.926;46.387;60.547;39.062
1553640094;52.734;22.949;45.41;45.41;36.621
1553640094;47.363;25.391;44.922;23.438;30.273
1553640094;36.133;28.32;40.527;32.227;31.738
1553640094;31.738;26.855;41.992;29.297;32.227
1553640094;27.344;25.879;44.434;23.926;30.762
1553640094;30.762;25.391;45.41;40.527;27.832
1553640094;36.621;27.344;43.457;49.316;30.273
1553640094;36.133;25.879;40.527;41.504;36.621
1553640094;37.598;21.973;42.969;29.785;36.621
1553640094;46.387;20.02;40.527;24.902;33.691
1553640094;50.781;20.02;36.133;32.715;35.156
1553640094;46.387;24.902;39.062;44.434;41.992
1553640094;42.969;24.902;32.227;62.5;48.828
1553640094;38.574;20.508;25.391;78.613;42.969
1553640094;32.227;17.578;41.504;54.688;41.016
1553640094;41.016;19.043;55.664;34.18;44.434
1553640094;45.898;20.508;49.805;32.227;48.34
1553640094;40.039;21.484;43.945;35.645;53.711
1553640094;37.598;24.414;47.363;47.852;47.363
1553640094;33.203;25.391;46.387;48.34;43.457
1553640094;33.203;26.855;41.504;46.387;46.387
1553640094;33.203;26.367;39.062;41.016;46.875
1553640094;38.086;28.809;37.598;31.25;40.527
1553640094;50.293;29.785;37.109;35.156;37.109
1553640094;46.387;26.855;36.133;44.922;36.621
1553640094;34.18;25.391;29.297;45.898;33.691
1553640094;30.273;21.484;27.344;36.133;31.738
1553640094;28.32;21.973;31.738;26.855;29.297
1553640094;25.391;23.926;26.855;34.18;28.32
1553640094;26.855;23.438;31.25;41.992;31.25
1553640094;28.32;24.902;39.062;36.133;31.25
1553640094;28.809;23.438;35.156;20.996;23.926
1553640094;32.227;24.414;36.621;22.949;21.484
1553640094;31.25;26.855;33.691;30.762;29.785
1553640094;29.297;26.855;27.344;29.785;27.832
1553640094;48.34;28.32;27.832;61.035;38.086
1553640094;60.547;25.879;31.25;65.43;49.316
1553640094;31.25;20.02;31.738;19.531;25.391
1553640094;6.348;20.02;29.297;8.301;15.137
1553640094;12.695;19.531;31.738;20.508;16.602
1553640094;18.066;16.113;31.25;23.438;18.066
1553640094;18.555;17.578;28.32;22.949;26.855
1553640094;11.23;18.555;29.785;20.996;23.926
1553640094;2.441;16.113;23.438;11.719;7.812
1553640094;22.461;20.02;23.926;3.418;3.418
1553640094;31.25;26.367;34.668;18.066;17.09
1553640094;27.344;26.855;35.645;39.062;27.344
1553640094;29.785;27.832;35.645;41.016;24.902
1553640094;28.809;32.227;38.574;32.715;25.391
1553640094;24.902;25.879;34.668;30.762;27.832
1553640094;22.949;22.461;33.203;31.25;30.762
1553640094;32.227;30.273;35.156;28.32;34.18
1553640094;37.598;32.227;32.227;29.785;30.762
1553640094;33.691;29.297;32.227;40.039;21.973
1553640094;30.762;29.297;35.645;39.062;26.855
1553640094;30.762;33.203;35.156;33.691;34.18
1553640094;28.32;33.691;34.18;21.973;27.344
1553640094;24.902;30.762;32.715;24.414;26.367
1553640094;26.855;31.738;32.227;30.273;30.273
1553640094;31.25;31.738;33.203;32.227;34.18
1553640094;29.785;29.785;30.762;30.273;33.203
1553640094;38.574;32.227;30.273;19.531;35.156
1553640094;43.945;35.645;35.156;32.715;38.574
1553640094;42.969;35.156;39.551;43.457;46.387
1553640094;47.852;34.18;36.133;40.527;45.898
1553640094;41.016;34.668;27.344;37.109;38.086
1553640094;37.598;33.691;33.691;32.715;38.086
1553640094;28.809;34.18;43.457;33.691;37.598
1553640094;19.531;33.691;43.945;37.598;36.621
1553640094;30.762;36.133;43.457;37.109;37.598
1553640094;34.668;37.598;41.016;30.762;33.691
1553640094;26.367;34.18;32.715;27.832;34.18
1553640094;28.809;29.785;30.273;29.297;36.621
1553640094;23.926;25.879;38.574;21.484;35.156
1553640094;17.578;24.902;41.016;34.668;31.25
1553640094;22.949;24.902;39.062;39.551;33.203
1553640094;23.926;28.809;40.039;29.297;37.109
1553640094;32.715;33.203;38.574;29.297;27.832
1553640094;31.738;31.25;34.668;18.066;24.414
1553640094;27.832;29.785;36.133;14.648;29.785
1553640094;30.762;33.203;32.227;24.414;29.297
1553640094;37.109;32.715;27.832;32.715;21.484
1553640094;30.762;30.762;36.621;25.879;14.648
1553640094;24.902;31.738;39.551;21.973;18.555
1553640094;26.855;32.227;39.062;27.344;23.926
1553640094;24.414;32.227;42.48;36.621;25.879
1553640094;28.809;34.668;39.551;38.574;26.855
1553640094;30.273;30.273;38.086;29.297;21.973
1553640094;26.367;26.855;35.645;21.973;19.043
1553640094;28.32;28.32;26.855;22.949;23.438
1553640094;39.551;33.691;29.785;23.438;20.508
1553640094;40.039;33.691;36.621;34.668;20.508
1553640094;23.926;26.855;37.109;59.57;21.973
1553640094;23.438;29.785;39.551;57.129;23.438
1553640094;22.461;32.715;33.691;13.184;26.367
1553640094;20.02;33.203;29.297;3.906;27.344
1553640094;38.574;33.691;30.762;24.902;32.715
1553640094;39.551;38.574;33.691;31.25;34.668
1553640094;29.785;38.086;31.738;31.738;27.344
1553640094;51.758;29.297;29.297;35.156;29.297
1553640094;54.199;28.32;31.738;37.598;31.738
1553640094;35.156;30.273;34.668;36.133;34.668
1553640094;31.738;25.879;39.062;37.109;39.551
1553640094;32.227;27.344;40.039;41.992;37.598
1553640094;30.273;35.645;39.062;44.922;41.016
1553640094;34.18;37.109;37.598;36.133;46.875
1553640094;44.922;34.668;35.156;34.18;43.945
1553640094;55.176;35.645;36.133;30.762;35.645
1553640094;48.828;37.109;37.109;32.227;36.133
1553640094;40.039;32.227;32.227;41.504;41.016
1553640094;42.48;28.32;25.879;31.738;46.875
1553640094;43.457;27.832;24.414;26.367;49.316
1553640094;49.316;29.297;31.25;42.969;48.828
1553640094;46.875;28.32;37.598;48.828;48.34
1553640094;42.48;27.832;31.25;32.227;48.34
1553640094;38.086;28.809;20.02;37.598;39.062
1553640094;39.062;30.273;30.273;44.434;28.32
1553640094;40.527;35.645;41.016;39.551;31.25
1553640094;39.062;31.25;35.645;43.945;37.598
1553640094;42.969;28.809;35.645;48.828;37.598
1553640094;40.039;34.18;38.574;56.152;37.109
1553640094;37.598;30.762;38.086;55.664;38.574
1553640094;44.922;29.297;31.738;28.32;37.598
1553640094;39.551;29.785;28.809;23.438;40.039
1553640094;31.25;27.344;30.762;36.133;36.133
1553640094;44.434;28.809;27.344;28.32;36.621
1553640094;42.969;31.738;32.227;41.992;42.48
1553640094;40.527;32.227;38.086;38.086;48.828
1553640094;43.457;32.715;34.18;29.297;45.898
1553640094;51.758;31.25;26.855;39.062;34.668
1553640094;58.105;29.297;27.832;61.035;32.227
1553640094;42.48;28.32;33.203;62.5;35.645
1553640094;25.879;28.32;32.227;36.133;37.598
1553640094;29.297;28.809;32.715;34.668;32.227
1553640094;30.273;29.297;34.18;28.809;26.367
1553640094;22.949;30.762;34.18;15.625;30.273
1553640094;29.785;35.645;33.203;21.973;41.504
1553640094;39.551;35.156;28.809;45.41;33.691
1553640094;33.691;35.645;26.367;48.828;24.902
1553640094;27.344;34.18;29.785;32.227;30.273
1553640094;33.203;28.32;35.156;23.438;34.18
1553640094;42.969;30.273;31.25;21.484;32.227
1553640094;38.574;30.762;31.25;26.855;27.832
1553640094;28.32;30.273;35.156;35.645;28.32
1553640094;30.273;33.203;37.109;34.18;38.574
1553640094;43.457;37.598;36.133;29.785;45.898
1553640094;50.293;35.645;34.668;19.043;41.992
1553640094;37.598;31.738;32.227;25.391;36.133
1553640094;21.973;32.715;28.809;31.25;33.203
1553640094;22.949;35.645;36.621;34.668;35.156
1553640094;30.273;36.621;43.945;41.016;31.738
1553640094;22.461;35.156;41.992;31.738;29.785
1553640094;30.762;33.691;40.527;42.48;34.668
1553640094;39.551;35.156;37.109;40.527;40.527
1553640094;32.715;34.668;32.227;30.762;30.762
1553640094;28.809;35.156;33.691;40.039;19.043
1553640094;30.762;34.668;32.227;38.574;23.926
1553640094;27.832;28.809;24.414;34.18;30.762
1553640094;18.555;25.391;29.785;29.785;31.25
1553640094;32.227;27.344;36.133;17.09;27.344
1553640094;41.016;27.344;31.25;27.832;27.344
1553640094;32.715;32.715;36.133;39.551;28.809
1553640094;31.738;34.668;34.668;29.297;28.32
1553640094;33.691;29.785;30.273;32.227;23.438
1553640094;29.785;29.297;35.156;49.316;19.531
1553640094;26.367;30.273;37.109;46.875;23.438
1553640094;30.762;33.203;31.25;28.32;25.391
1553640094;41.016;31.738;31.25;27.832;20.996
1553640094;39.551;29.785;32.227;25.879;21.484
1553640094;25.391;29.297;29.785;15.137;25.879
1553640094;36.133;31.25;33.203;18.066;32.227
1553640094;53.711;38.086;37.109;31.738;29.785
1553640094;38.574;33.203;35.645;43.457;19.043
1553640094;22.949;24.902;34.18;44.434;20.02
1553640094;34.18;23.926;35.645;45.41;30.273
1553640094;27.832;27.832;37.109;25.879;30.762
1553640094;21.484;32.227;35.645;11.23;25.879
1553640094;27.832;32.715;34.18;13.672;23.438
1553640094;25.879;30.762;33.691;22.949;25.879
1553640094;29.297;30.273;36.621;35.156;29.297
1553640094;38.574;30.762;40.527;38.574;26.367
1553640094;56.641;34.668;39.062;29.297;32.715
1553640094;42.969;36.621;36.133;21.973;37.109
1553640094;28.809;34.668;34.18;32.715;31.25
1553640094;35.645;32.227;36.621;41.504;24.414
1553640094;32.227;27.832;40.527;53.223;20.02
1553640094;38.086;27.832;37.598;42.48;22.949
1553640094;21.973;26.367;33.691;18.555;27.344
1553640094;0.977;18.066;35.156;16.113;21.484
1553640094;9.277;18.555;34.18;12.695;20.02
1553640094;21.973;23.438;35.645;11.719;25.879
1553640094;20.996;22.949;38.574;14.648;33.203
1553640094;28.32;23.926;38.574;22.949;37.109
1553640094;37.109;28.809;39.062;32.227;31.25
1553640094;26.367;27.344;38.574;28.32;27.344
1553640094;28.32;22.949;34.668;22.461;27.344
1553640094;26.367;25.391;34.18;22.461;22.949
1553640094;18.066;28.32;39.551;22.461;19.043
1553640094;28.32;30.762;40.039;16.602;25.879
1553640094;32.715;35.645;40.527;13.184;34.668
1553640094;32.715;33.691;43.945;29.297;38.574
1553640094;27.344;26.855;43.945;44.922;30.273
1553640094;25.879;24.414;40.527;47.852;23.926
1553640094;34.18;24.414;37.109;50.781;24.414
1553640094;32.715;24.414;37.598;53.711;26.855
1553640094;41.992;27.832;39.551;29.297;25.879
1553640094;46.387;29.785;36.133;6.836;28.32
1553640094;31.25;26.855;33.203;10.254;27.344
1553640094;25.391;27.344;35.156;24.902;28.32
1553640094;33.691;28.809;35.645;27.832;30.762
1553640094;35.645;27.832;33.203;22.949;28.809
1553640094;28.809;29.297;29.297;21.484;29.297
1553640094;30.762;31.738;33.691;23.926;36.621
1553640094;34.18;28.32;39.062;30.762;34.18
1553640094;40.039;25.391;36.621;34.18;26.367
1553640094;42.969;26.855;31.25;32.227;28.32
1553640094;44.922;27.832;33.203;29.297;26.367
1553640094;38.086;30.273;37.598;27.344;28.809
1553640094;24.902;28.809;36.133;34.668;28.32
1553640094;29.785;31.738;38.086;41.016;25.879
1553640094;39.062;38.574;44.922;49.316;32.227
1553640094;27.344;39.551;44.434;50.293;34.18
1553640094;20.996;36.621;37.598;40.527;24.902
1553640094;28.32;31.738;36.621;31.738;24.414
1553640094;26.855;29.785;35.645;31.25;30.762
1553640094;32.715;30.762;36.621;32.227;33.691
1553640094;36.133;34.668;38.086;34.18;31.738
1553640094;31.25;35.156;34.18;35.156;27.344
1553640094;39.062;32.227;33.203;31.738;26.367
1553640094;45.41;30.273;33.691;28.32;28.32
1553640094;38.086;29.785;30.273;39.062;41.504
1553640094;37.109;28.32;30.762;45.898;40.039
1553640094;28.32;28.32;37.109;34.668;20.508
1553640094;20.508;27.832;35.645;19.531;17.09
1553640094;35.156;28.32;30.273;26.855;29.785
1553640094;48.34;32.715;29.785;33.203;38.086
1553640094;43.945;30.273;30.273;22.949;39.062
1553640094;42.969;25.879;31.25;28.809;36.621
1553640094;46.387;26.367;33.691;46.387;39.062
1553640094;33.691;29.297;33.691;57.129;38.086
1553640094;32.715;29.297;31.25;58.594;36.621
1553640094;42.48;27.832;27.832;44.434;39.551
1553640094;40.527;26.367;29.297;34.18;41.016
1553640094;29.785;22.949;27.832;33.203;37.109
1553640095;33.203;26.367;27.832;27.344;37.109
1553640095;49.805;31.25;28.32;32.715;43.945
1553640095;50.781;30.762;29.785;36.133;48.828
1553640095;45.898;28.32;32.715;49.805;44.922
1553640095;49.316;26.855;32.227;64.453;34.668
1553640095;46.875;33.691;35.645;62.5;37.598
1553640095;45.898;35.156;35.156;46.387;44.434
1553640095;43.457;30.273;31.738;22.461;45.898
1553640095;60.059;34.668;34.18;32.227;44.434
1553640095;67.871;34.668;34.668;40.527;41.992
1553640095;41.504;32.227;31.738;37.109;37.598
1553640095;33.691;33.691;30.273;34.668;35.156
1553640095;44.434;34.18;30.273;29.785;35.645
1553640095;44.434;31.738;30.762;31.25;35.645
1553640095;38.086;32.715;32.715;53.711;35.645
1553640095;48.34;37.109;33.691;53.711;40.039
1553640095;48.828;36.621;33.203;32.227;43.457
1553640095;39.062;34.668;33.203;34.18;39.062
1553640095;36.133;34.668;34.18;42.969;38.086
1553640095;38.086;31.25;33.203;44.922;43.457
1553640095;44.922;28.809;35.156;30.762;46.875
1553640095;44.922;25.879;34.668;24.414;41.016
1553640095;32.715;24.902;31.25;42.969;39.062
1553640095;33.691;26.855;30.273;41.016;43.945
1553640095;37.109;24.902;30.273;30.762;46.875
1553640095;41.016;25.879;30.762;27.344;43.945
1553640095;49.316;28.809;29.785;30.762;40.039
1553640095;40.039;33.203;31.25;38.574;45.41
1553640095;29.785;31.25;33.203;39.551;49.805
1553640095;24.902;28.809;32.715;39.062;50.293
1553640095;30.273;29.785;34.18;25.879;48.34
1553640095;46.875;31.738;37.109;36.621;38.574
1553640095;46.387;33.203;31.25;41.504;36.133
1553640095;26.855;32.715;28.809;24.902;40.039
1553640095;26.855;33.203;33.691;21.973;33.691
1553640095;35.645;33.691;35.645;29.297;33.691
1553640095;28.809;35.156;35.156;42.48;40.039
1553640095;20.02;35.645;34.18;53.711;38.574
1553640095;29.297;37.109;33.691;48.34;35.645
1553640095;43.945;34.668;32.715;39.062;34.668
1553640095;38.086;32.715;31.25;36.621;36.621
1553640095;25.879;28.809;28.32;31.25;41.992
1553640095;25.879;26.367;28.32;37.598;40.039
1553640095;25.879;29.297;28.809;42.969;34.668
1553640095;33.203;36.621;32.227;35.156;33.691
1553640095;37.109;39.551;34.18;27.344;33.691
1553640095;27.344;36.133;30.273;20.508;31.738
1553640095;32.227;33.691;25.879;20.508;23.438
1553640095;24.414;32.227;26.367;24.414;25.391
1553640095;14.648;31.738;29.297;27.832;32.227
1553640095;19.043;34.18;27.832;46.875;29.297
1553640095;32.715;33.691;28.809;48.828;26.855
1553640095;41.016;32.715;30.762;31.738;30.762
1553640095;31.25;30.273;30.273;35.645;26.367
1553640095;22.461;26.367;34.668;42.969;26.367
1553640095;20.996;26.855;34.668;30.273;28.32
1553640095;18.066;30.273;33.203;19.043;26.855
1553640095;20.996;31.738;31.25;22.461;25.879
1553640095;23.926;31.25;30.762;13.184;25.391
1553640095;24.902;32.715;30.273;18.066;27.832
1553640095;36.133;34.18;27.832;19.531;28.809
1553640095;36.621;35.156;31.738;15.137;27.344
1553640095;29.785;35.645;35.645;22.949;31.25
1553640095;34.18;36.621;34.18;40.527;35.156
1553640095;36.133;38.086;33.203;44.922;32.227
1553640095;34.18;38.574;33.691;32.227;36.133
1553640095;32.715;35.645;32.227;34.668;39.062
1553640095;40.527;33.691;30.762;28.809;36.133
1553640095;36.133;37.109;28.32;21.973;24.902
1553640095;29.785;38.086;26.367;25.879;20.996
1553640095;33.691;39.551;30.762;26.367;21.484
1553640095;28.809;37.109;29.785;31.25;15.625
1553640095;19.531;35.156;32.715;37.598;14.16
1553640095;26.855;36.621;31.25;33.203;13.672
1553640095;37.109;36.133;27.832;24.414;17.578
1553640095;35.156;38.086;35.645;29.297;27.832
1553640095;34.18;32.715;33.203;28.809;27.344
1553640095;28.809;32.227;27.344;28.809;27.832
1553640095;22.461;34.18;25.879;33.691;28.32
1553640095;30.762;34.668;27.832;37.598;28.32
1553640095;26.855;38.086;29.785;52.734;28.809
1553640095;20.02;40.527;29.297;45.898;21.973
1553640095;32.715;36.133;28.32;30.762;20.02
1553640095;39.551;35.156;28.32;34.18;24.414
1553640095;38.574;37.598;25.391;23.438;25.879
1553640095;39.551;36.621;23.438;24.902;19.043
1553640095;34.668;31.25;24.902;31.738;19.531
1553640095;33.203;30.762;27.832;25.879;24.414
1553640095;32.227;35.645;29.785;21.484;30.762
1553640095;29.297;38.086;30.273;20.508;31.738
1553640095;35.156;39.062;32.227;30.273;30.762
1553640095;34.18;37.598;34.18;37.109;34.668
1553640095;29.785;39.062;34.668;36.621;38.574
1553640095;25.879;40.039;32.715;13.672;28.32
1553640095;27.344;40.039;30.762;-2.441;19.531
1553640095;38.574;43.457;32.715;21.973;34.668
1553640095;39.551;36.621;31.738;32.227;45.898
1553640095;33.691;41.016;29.297;15.625;39.551
1553640095;12.695;45.898;27.832;3.418;12.207
1553640095;11.719;35.156;34.668;12.695;7.812
1553640095;27.832;41.016;36.621;19.531;23.438
1553640095;9.766;47.363;35.645;8.789;20.02
1553640095;3.418;48.828;41.992;1.465;6.836
1553640095;3.906;55.664;47.363;-6.836;-1.465
1553640095;-1.953;58.594;39.062;-15.625;-13.184
1553640095;-7.812;59.082;36.621;-34.668;-19.043
1553640095;-31.738;58.105;32.227;-40.527;-27.344
1553640095;-46.387;55.176;29.297;-46.875;-52.246
1553640095;-50.781;62.012;33.203;-63.965;-65.43
1553640095;-60.059;74.219;30.273;-79.102;-67.871
1553640095;-89.355;83.984;32.227;-78.125;-83.008
1553640095;-115.723;85.449;36.621;-83.496;-101.562
1553640095;-110.352;91.309;31.738;-121.094;-109.375
1553640095;-130.371;91.797;30.762;-151.367;-127.441
1553640095;-153.32;88.379;30.762;-147.949;-145.508
1553640095;-169.922;94.727;33.203;-160.156;-156.25
1553640095;-189.941;103.516;41.992;-194.336;-175.781
1553640095;-200.684;106.934;47.363;-205.566;-200.684
1553640095;-221.68;105.957;44.434;-211.426;-218.75
1553640095;-235.352;113.77;35.645;-222.168;-236.328
1553640095;-241.699;116.699;32.715;-250;-261.23
1553640095;-242.676;116.699;30.762;-265.625;-263.184
1553640095;-248.535;116.211;35.645;-275.879;-258.301
1553640095;-265.625;115.234;40.039;-293.945;-270.02
1553640095;-261.719;118.652;37.109;-274.414;-266.113
1553640095;-230.957;120.117;37.598;-238.281;-244.141
1553640095;-217.773;117.676;38.574;-215.332;-231.445
1553640095;-229.492;117.188;34.668;-230.469;-232.91
1553640095;-231.445;119.629;31.738;-255.859;-231.445
1553640095;-219.238;119.629;34.18;-242.188;-220.703
1553640095;-201.66;119.629;36.621;-230.469;-204.59
1553640095;-201.172;120.605;29.297;-229.492;-200.195
1553640095;-212.891;122.559;28.32;-228.027;-204.102
1553640095;-188.477;115.234;32.227;-189.941;-182.129
1553640095;-163.574;110.352;27.344;-168.457;-164.551
1553640095;-166.992;114.258;26.367;-187.988;-165.527
1553640095;-155.762;112.793;27.832;-166.504;-161.133
1553640095;-145.996;113.281;26.855;-158.203;-154.785
1553640095;-152.344;114.258;25.391;-166.992;-161.133
1553640095;-141.113;111.328;25.391;-156.738;-153.32
1553640095;-131.348;110.352;21.484;-147.461;-137.695
1553640095;-134.766;105.469;25.879;-134.277;-141.113
1553640095;-115.723;101.074;27.832;-121.094;-138.672
1553640095;-101.074;99.609;20.02;-102.539;-110.84
1553640095;-115.234;98.633;19.043;-85.449;-90.82
1553640095;-111.328;92.285;23.926;-86.426;-90.82
1553640095;-102.539;89.844;27.344;-100.098;-90.82
1553640095;-109.863;90.82;26.855;-112.793;-91.797
1553640095;-94.727;86.426;28.32;-114.258;-93.75
1553640095;-70.801;89.355;25.391;-106.445;-87.402
1553640095;-65.43;91.797;21.973;-87.402;-71.777
1553640095;-57.129;88.379;26.855;-65.43;-55.176
1553640095;-62.988;83.008;32.227;-63.477;-52.246
1553640095;-65.918;76.66;32.227;-51.27;-55.176
1553640095;-66.406;69.824;29.297;-42.969;-56.641
1553640095;-63.477;66.895;27.344;-40.039;-54.688
1553640095;-49.316;62.012;30.273;-29.785;-46.875
1553640095;-29.297;56.641;32.715;-19.043;-40.527
1553640095;-20.996;58.594;31.25;-19.043;-33.203
1553640095;-21.973;53.223;28.32;-22.461;-23.438
1553640095;-7.812;46.387;28.809;-17.09;-11.719
1553640095;-6.348;41.016;35.156;-19.531;-8.789
1553640095;5.859;36.133;43.457;3.418;0.488
1553640095;10.742;32.227;46.387;24.902;14.16
1553640095;0.977;34.18;42.48;17.578;20.996
1553640095;13.672;37.598;36.133;26.367;31.25
1553640095;22.461;31.738;32.227;38.086;27.344
1553640095;13.184;28.32;39.062;20.996;15.137
1553640095;25.879;26.855;41.016;10.254;18.555
1553640095;31.25;21.484;37.109;21.973;25.879
1553640095;24.902;18.555;39.551;33.203;21.484
1553640095;31.25;21.973;43.945;41.016;26.855
1553640095;23.926;20.996;44.922;28.32;34.668
1553640095;17.578;15.137;41.504;3.906;37.598
1553640095;12.695;19.043;34.18;6.836;35.645
1553640095;5.371;21.973;26.367;5.371;16.602
1553640095;19.043;17.578;32.227;8.789;3.418
1553640095;25.879;16.602;40.527;28.32;13.184
1553640095;17.09;17.578;38.086;24.902;27.344
1553640095;10.742;20.02;37.598;12.695;18.066
1553640095;7.324;21.484;37.109;19.043;5.859
1553640095;13.184;23.926;32.715;28.809;17.578
1553640095;10.254;22.949;35.156;27.344;27.832
1553640095;4.395;20.508;38.086;18.066;19.531
1553640095;7.324;23.438;32.227;2.441;14.16
1553640095;24.414;31.25;28.32;-0.977;21.973
1553640095;29.785;29.785;32.227;5.371;29.297
1553640095;12.695;24.414;38.086;8.301;24.414
1553640095;12.207;23.926;40.527;16.602;28.32
1553640095;22.949;21.973;38.574;16.602;32.715
1553640095;21.484;25.391;38.086;23.438;34.18
1553640095;17.578;26.367;39.551;45.898;38.086
1553640095;19.043;23.438;36.621;64.941;23.926
1553640095;29.297;25.391;31.738;42.48;21.973
1553640095;40.527;25.879;25.879;18.066;36.133
1553640095;37.598;20.508;24.902;29.297;35.645
1553640095;41.504;22.949;26.367;36.621;28.809
1553640095;53.223;24.902;32.715;51.758;36.133
1553640095;47.363;20.508;35.645;70.312;47.852
1553640095;56.152;20.02;31.25;54.688;50.293
1553640095;67.383;22.461;34.18;29.297;43.457
1553640095;51.758;21.484;35.645;36.621;43.457
1553640095;57.129;22.461;31.738;69.336;56.152
1553640095;62.5;24.902;35.156;76.66;63.965
1553640095;65.918;24.414;37.598;60.547;57.617
1553640095;63.965;24.902;38.086;59.082;52.734
1553640095;50.781;24.414;36.621;59.57;47.852
1553640095;44.434;21.484;35.645;47.363;41.992
1553640095;33.691;17.578;33.203;39.062;41.992
1553640095;39.551;20.508;30.273;31.738;41.016
1553640095;50.781;24.414;35.156;47.363;42.969
1553640095;59.57;20.508;38.574;70.801;53.223
1553640095;62.5;19.531;39.551;63.477;61.035
1553640095;52.734;21.484;38.086;58.105;56.152
1553640095;57.129;19.043;35.645;61.035;49.805
1553640095;60.547;16.113;33.691;48.828;48.828
1553640095;57.617;13.184;32.227;53.711;47.852
1553640095;59.57;12.207;29.785;66.406;48.828
1553640095;62.012;18.066;31.25;64.941;56.152
1553640095;61.035;19.531;33.203;53.223;58.105
1553640095;62.5;12.695;29.785;56.152;58.105
1553640095;56.152;7.812;26.367;47.363;50.781
1553640095;48.828;11.23;28.809;52.734;43.945
1553640095;44.434;7.812;34.668;69.824;46.875
1553640095;52.734;10.742;34.668;69.824;53.223
1553640095;71.777;15.625;31.738;76.66;62.988
1553640095;65.43;11.719;34.18;81.055;64.941
1553640095;58.594;12.695;36.621;67.871;62.5
1553640095;60.059;14.648;35.156;48.34;62.012
1553640095;65.43;14.16;33.691;50.293;67.871
1553640095;59.082;16.113;34.18;59.57;63.477
1553640095;56.641;20.996;32.715;55.176;62.988
1553640095;66.895;22.461;28.809;45.41;66.406
1553640095;72.266;17.09;32.715;67.383;61.523
1553640095;80.078;17.578;36.621;82.52;59.57
1553640095;65.918;20.508;33.691;54.688;57.129
1553640095;47.363;16.113;29.785;46.387;53.711
1553640095;54.688;13.672;28.809;58.594;59.57
1553640095;62.5;14.648;25.879;63.965;60.547
1553640095;50.781;13.672;24.902;59.57;53.711
1553640095;43.945;13.672;29.785;46.875;53.223
1553640095;45.41;19.531;27.832;44.434;59.082
1553640095;56.152;20.02;27.344;48.828;63.965
1553640095;70.801;19.043;33.203;62.012;54.688
1553640095;62.5;20.508;34.18;57.617;49.805
1553640095;48.34;19.043;31.25;42.969;51.758
1553640095;50.293;22.461;26.855;46.387;52.734
1553640095;57.617;25.391;28.32;44.434;46.875
1553640095;51.27;24.414;31.738;42.48;38.086
1553640095;39.551;25.391;34.668;49.805;41.504
1553640095;34.668;26.855;34.668;45.898;41.992
1553640095;35.156;24.902;35.156;42.48;34.18
1553640095;40.527;21.484;31.738;29.785;35.645
1553640095;30.273;22.949;29.785;14.648;35.645
1553640095;23.926;25.391;31.738;28.809;29.297
1553640095;26.855;25.391;30.762;26.367;22.949
1553640096;23.438;25.391;28.809;14.16;20.02
1553640096;33.203;28.809;31.738;43.457;28.32
1553640096;59.57;29.785;38.086;65.43;37.598
1553640096;67.383;28.32;38.574;58.594;37.109
1553640096;41.504;26.855;36.133;45.898;33.691
1553640096;25.879;28.32;31.25;43.457;37.598
1553640096;28.809;28.32;28.32;53.711;42.969
1553640096;38.086;29.785;30.762;40.039;44.922
1553640096;47.363;30.762;29.785;31.25;39.062
1553640096;28.809;24.902;26.855;31.25;28.32
1553640096;29.297;28.32;26.367;24.414;33.691
1553640096;40.039;30.273;26.367;24.902;49.316
1553640096;34.668;23.438;31.738;28.809;44.922
1553640096;37.598;25.391;31.25;40.039;42.48
1553640096;45.898;21.484;30.273;41.992;42.969
1553640096;50.293;19.043;32.227;44.922;38.086
1553640096;50.293;26.367;30.273;46.875;44.434
1553640096;53.711;27.344;26.855;32.715;41.992
1553640096;48.34;27.832;23.438;32.715;37.109
1553640096;33.203;26.855;24.902;43.945;35.156
1553640096;40.527;27.344;28.809;35.156;35.156
1553640096;42.969;27.832;27.344;36.133;32.715
1553640096;37.109;27.832;23.926;50.293;28.32
1553640096;29.785;28.809;28.32;47.852;32.715
1553640096;29.785;26.855;33.691;41.504;40.039
1553640096;31.738;27.344;32.715;27.832;33.203
1553640096;33.691;29.785;34.18;31.25;27.832
1553640096;43.945;31.25;32.227;39.062;34.18
1553640096;44.922;35.156;30.762;27.832;45.41
1553640096;39.062;35.645;33.691;26.855;39.551
1553640096;41.016;31.738;34.18;27.832;31.25
1553640096;46.875;28.32;33.203;28.32;34.668
1553640096;47.852;28.32;32.227;41.504;36.133
1553640096;35.156;30.273;33.691;41.504;35.645
1553640096;38.086;31.25;32.227;31.738;33.203
1553640096;48.828;27.832;33.203;42.48;27.832
1553640096;50.293;25.391;34.668;40.039;26.855
1553640096;50.781;30.762;33.691;15.625;34.18
1553640096;33.691;30.273;32.227;28.32;29.785
1553640096;32.715;27.832;28.809;36.621;30.273
1553640096;37.598;30.762;29.785;22.461;39.062
1553640096;29.297;29.785;32.227;27.344;37.598
1553640096;29.785;25.879;31.738;36.133;26.367
1553640096;36.621;27.344;31.738;31.738;26.855
1553640096;44.922;31.738;33.203;31.738;34.668
1553640096;43.945;35.645;33.691;53.711;40.527
1553640096;48.828;35.156;32.227;59.082;36.621
1553640096;66.406;35.156;34.668;45.898;37.598
1553640096;57.129;38.086;36.133;30.762;39.551
1553640096;43.945;35.645;35.156;24.902;34.668
1553640096;36.621;34.668;32.227;28.32;34.18
1553640096;27.344;32.715;33.203;30.762;30.273
1553640096;32.715;30.273;35.645;31.738;22.949
1553640096;28.809;31.738;34.18;21.484;22.461
1553640096;30.762;33.691;33.203;37.109;26.855
1553640096;41.992;32.715;33.691;41.016;23.926
1553640096;31.738;33.203;33.203;21.973;19.043
1553640096;24.902;36.133;33.691;8.789;24.902
1553640096;32.227;38.086;35.645;18.066;28.809
1553640096;37.598;38.574;32.715;22.461;23.438
1553640096;35.645;38.574;33.691;25.879;23.438
1553640096;19.531;36.621;34.668;35.156;27.344
1553640096;10.742;36.621;33.203;48.34;28.809
1553640096;21.973;35.645;32.715;65.43;28.32
1553640096;34.18;34.668;30.273;30.762;28.32
1553640096;37.598;32.715;32.715;13.672;27.832
1553640096;33.203;30.273;38.086;22.461;33.203
1553640096;33.691;28.32;36.621;24.902;36.133
1553640096;41.504;29.785;30.273;18.066;29.297
1553640096;28.809;26.855;32.227;6.348;18.555
1553640096;22.949;22.461;38.086;30.273;21.973
1553640096;34.668;20.02;40.527;49.805;32.227
1553640096;36.133;16.602;38.086;52.734;29.297
1553640096;31.738;13.672;35.645;58.105;27.344
1553640096;32.227;10.742;35.156;40.527;31.25
1553640096;37.109;9.277;34.18;32.227;38.574
1553640096;39.062;6.348;30.762;53.711;31.25
1553640096;49.805;5.371;30.273;61.035;30.273
1553640096;59.57;7.324;33.203;56.152;39.551
1553640096;50.293;6.348;33.691;46.387;46.875
1553640096;42.969;7.324;33.691;28.32;49.805
1553640096;52.246;10.742;36.133;30.762;52.246
1553640096;58.594;11.719;33.691;29.297;52.246
1553640096;47.852;15.137;33.203;42.48;47.363
1553640096;43.457;15.625;34.18;86.426;48.34
1553640096;52.246;16.602;33.203;90.82;51.27
1553640096;53.711;17.578;35.156;69.824;58.105
1553640096;47.363;10.742;34.18;69.336;61.035
1553640096;50.293;13.184;34.668;85.449;56.641
1553640096;51.758;15.625;35.645;52.734;44.922
1553640096;52.246;15.625;32.227;15.625;36.621
1553640096;62.5;15.137;30.762;33.203;36.133
1553640096;53.711;19.531;32.715;48.828;39.551
1553640096;34.18;20.508;30.273;40.039;31.738
1553640096;47.852;17.09;29.785;41.504;29.785
1553640096;50.293;15.137;34.668;54.688;34.668
1553640096;42.969;18.066;35.645;45.898;41.992
1553640096;45.898;19.531;32.715;45.898;42.48
1553640096;34.18;21.973;30.273;52.246;28.32
1553640096;41.992;23.926;30.273;60.547;33.203
1553640096;53.711;22.461;31.25;66.895;50.293
1553640096;47.852;25.879;27.832;57.617;53.223
1553640096;37.109;21.484;25.391;41.016;42.969
1553640096;32.715;18.555;26.855;18.555;41.504
1553640096;36.133;21.484;26.367;13.672;45.898
1553640096;32.715;20.508;29.297;30.762;52.734
1553640096;41.016;25.879;34.668;33.691;51.27
1553640096;52.734;26.855;31.25;41.504;45.898
1553640096;43.457;20.02;28.809;72.754;47.852
1553640096;41.504;21.973;28.32;57.617;54.199
1553640096;40.527;18.066;28.32;29.785;45.41
1553640096;49.805;19.043;28.809;30.762;32.227
1553640096;53.223;20.996;28.809;18.555;27.832
1553640096;36.133;20.508;33.691;32.715;23.926
1553640096;29.785;26.855;32.227;43.945;24.414
1553640096;29.785;25.879;27.832;30.273;25.391
1553640096;41.016;20.02;29.785;35.645;21.973
1553640096;52.246;24.414;30.273;47.852;21.484
1553640096;24.414;25.879;29.785;26.855;26.367
1553640096;0.977;19.531;29.785;8.301;24.902
1553640096;22.949;20.02;25.879;30.273;26.855
1553640096;37.598;25.391;28.32;50.293;40.527
1553640096;43.457;28.809;29.785;39.551;53.711
1553640096;45.898;26.855;28.809;18.555;51.758
1553640096;41.504;23.926;31.738;32.715;48.34
1553640096;44.434;21.484;33.691;72.754;53.711
1553640096;44.434;20.02;33.691;67.383;59.082
1553640096;54.199;22.461;37.109;38.574;60.059
1553640096;72.754;28.32;37.598;42.48;53.711
1553640096;48.828;28.32;36.621;36.621;54.199
1553640096;30.273;25.879;35.645;30.273;63.965
1553640096;33.203;24.414;34.18;42.48;60.059
1553640096;32.715;24.902;35.156;49.805;50.293
1553640096;34.18;23.438;37.109;59.082;42.969
1553640096;33.691;20.508;36.133;58.105;45.41
1553640096;46.387;21.973;32.715;46.387;57.129
1553640096;52.246;27.344;28.809;46.875;61.035
1553640096;59.082;29.297;28.809;43.457;65.43
1553640096;61.035;24.414;31.738;50.293;73.242
1553640096;41.504;23.438;31.25;53.223;76.172
1553640096;32.227;24.414;28.32;59.082;76.172
1553640096;43.945;19.043;30.273;80.566;89.844
1553640096;59.57;17.578;31.738;68.848;104.004
1553640096;66.406;21.484;30.762;65.918;112.793
1553640096;64.453;23.438;30.762;83.984;126.465
1553640096;56.152;22.461;31.738;78.613;134.277
1553640096;58.594;23.926;34.668;77.637;141.602
1553640096;60.547;25.879;34.18;98.145;143.066
1553640096;48.34;26.855;33.691;96.68;157.227
1553640096;43.457;27.344;32.715;83.984;195.801
1553640096;53.223;26.855;32.227;90.82;211.426
1553640096;43.457;27.344;33.203;114.746;191.406
1553640096;35.156;28.32;28.32;115.234;150.879
1553640096;34.18;30.273;29.785;87.891;97.656
1553640096;38.086;32.715;32.715;91.309;56.152
1553640096;38.086;34.668;31.25;103.516;24.902
1553640096;51.758;36.133;34.18;76.66;-0.488
1553640096;45.898;34.18;35.645;47.363;-27.832
1553640096;26.855;32.715;32.715;56.641;-49.805
1553640096;26.855;36.133;33.203;58.105;-57.617
1553640096;12.695;37.598;36.621;36.133;-54.688
1553640096;10.742;37.109;33.691;27.344;-50.293
1553640096;21.973;39.551;28.32;7.324;-53.223
1553640096;19.531;44.922;29.297;-12.207;-53.711
1553640096;13.184;43.457;34.18;4.883;-53.223
1553640096;16.113;39.551;36.621;14.16;-45.898
1553640096;9.277;39.551;38.086;5.371;-45.898
1553640096;8.301;45.898;31.25;-11.719;-53.711
1553640096;5.371;50.293;25.391;-16.113;-60.059
1553640096;2.93;43.457;31.25;-14.16;-69.824
1553640096;7.812;39.062;36.621;-3.906;-81.543
1553640096;1.465;42.48;34.668;-0.977;-100.586
1553640096;-9.766;44.922;28.809;-22.949;-128.418
1553640096;-26.367;47.363;23.438;-27.344;-166.016
1553640096;-31.738;46.875;26.855;-36.621;-215.332
1553640096;-21.484;42.48;32.227;-56.641;-283.691
1553640096;-13.672;42.969;32.227;-75.684;-310.547
1553640096;-27.344;42.48;35.645;-88.379;-238.77
1553640096;-28.809;40.039;35.645;-91.797;-155.273
1553640096;-9.277;41.016;28.809;-91.309;-88.379
1553640096;-6.348;44.434;29.297;-73.73;-39.062
1553640096;-9.277;39.551;36.133;-61.523;-20.996
1553640096;-0.488;34.18;39.062;-47.852;-4.395
1553640096;18.555;36.133;34.18;-23.438;10.254
1553640096;28.32;37.109;27.344;10.254;22.461
1553640096;22.461;40.527;26.855;1.953;49.805
1553640096;20.508;33.691;32.227;-21.973;73.242
1553640096;13.672;24.902;34.18;-9.766;70.801
1553640096;13.672;27.344;29.297;-14.648;65.918
1553640096;18.555;30.273;22.949;-23.438;46.875
1553640096;14.648;26.855;24.902;-9.766;32.227
1553640096;17.09;18.555;29.785;-6.836;39.062
1553640096;27.344;22.949;32.227;10.742;49.316
1553640096;31.25;28.32;34.668;37.598;55.176
1553640096;34.668;26.367;34.668;36.621;59.57
1553640096;47.363;26.367;34.18;32.715;65.43
1553640096;56.152;22.949;33.691;52.246;64.453
1553640096;51.27;22.461;31.25;79.59;68.848
1553640096;68.359;23.438;28.809;47.852;79.102
1553640096;74.707;20.508;31.738;32.227;83.984
1553640096;55.176;21.484;33.203;53.711;80.566
1553640096;44.434;21.973;29.297;52.734;78.125
1553640096;43.457;24.902;29.297;46.387;86.914
1553640096;65.43;27.832;33.691;38.574;97.168
1553640096;57.617;20.508;36.621;58.594;85.938
1553640096;31.738;20.02;33.203;59.57;75.684
1553640096;26.855;22.461;31.738;38.086;74.219
1553640096;39.062;21.973;32.227;39.551;70.312
1553640096;39.062;24.902;31.25;49.805;69.336
1553640096;38.574;24.414;33.203;62.012;62.5
1553640096;49.805;22.949;33.691;53.711;59.082
1553640096;43.945;24.902;33.203;42.969;68.359
1553640096;41.016;25.391;34.668;34.18;71.289
1553640096;43.945;21.973;36.621;35.156;70.312
1553640096;47.363;24.902;37.598;70.801;88.379
1553640096;56.641;28.32;34.668;73.73;102.539
1553640096;67.871;26.367;31.25;64.453;107.422
1553640096;51.758;27.344;31.738;71.289;102.051
1553640096;45.41;30.273;30.762;69.336;91.797
1553640096;52.734;28.809;31.738;71.777;87.402
1553640096;44.434;28.32;35.156;77.637;94.238
1553640096;47.852;28.809;35.156;75.684;88.379
1553640096;54.688;29.785;35.156;75.684;79.59
1553640096;54.199;31.25;37.109;61.523;81.543
1553640096;66.895;31.738;37.598;44.434;79.59
1553640096;64.941;32.715;39.551;45.41;69.824
1553640096;52.246;33.203;41.016;62.012;68.359
1553640096;50.293;31.25;39.062;68.359;92.285
1553640096;46.875;29.785;38.086;67.383;113.281
1553640096;49.316;32.227;36.621;84.473;108.398
1553640096;56.641;32.227;35.645;84.961;86.426
1553640096;57.129;33.691;36.133;74.707;74.707
1553640096;49.316;31.25;36.133;75.195;67.871
1553640096;45.898;29.297;38.086;61.523;64.453
1553640096;54.199;29.297;38.086;54.199;54.199
1553640096;52.246;26.855;35.645;49.805;40.527
1553640096;44.922;27.832;31.738;42.969;34.18
1553640096;49.316;28.809;31.25;51.27;32.715
1553640096;41.016;25.879;35.156;70.801;26.367
1553640096;34.18;23.438;34.668;65.43;20.02
1553640096;45.41;25.879;29.785;47.363;19.043
1553640096;44.434;28.809;34.18;56.152;20.508
1553640096;42.48;32.715;39.551;54.199;22.461
1553640096;33.691;34.18;33.691;40.039;16.602
1553640096;30.273;35.156;33.691;35.156;17.578
1553640096;47.852;33.691;37.598;46.875;20.508
1553640096;37.109;31.25;34.668;56.641;12.207
1553640096;40.527;30.273;35.645;45.41;-2.93
1553640096;56.641;29.297;35.645;40.039;-18.555
1553640096;35.645;31.738;34.18;25.391;-22.461
1553640096;21.973;31.738;35.156;16.113;-24.414
1553640096;16.113;29.297;35.156;-0.488;-42.48
1553640096;9.766;28.32;37.598;-7.812;-57.129
1553640096;20.02;29.297;40.039;8.789;-68.359
1553640096;31.25;32.227;38.086;-0.977;-72.266
1553640096;25.391;34.668;34.668;-25.391;-82.031
1553640097;-1.465;33.691;34.18;-32.227;-106.445
1553640097;1.953;35.156;34.18;-28.32;-132.812
1553640097;5.371;39.551;33.691;-20.508;-132.812
1553640097;-10.742;39.062;36.621;-17.578;-93.262
1553640097;-2.441;36.621;37.598;-30.762;-52.246
1553640097;12.207;34.668;37.598;-46.387;-22.949
1553640097;12.207;27.832;35.645;-54.688;-5.371
1553640097;19.531;23.926;36.133;-19.531;6.348
1553640097;39.062;27.344;39.062;9.766;2.93
1553640097;23.438;26.367;40.039;-1.953;-0.977
1553640097;3.418;28.32;38.086;-9.766;3.418
1553640097;0.488;34.18;36.621;-5.859;8.301
1553640097;-5.371;35.156;34.668;-14.16;18.066
1553640097;0;38.574;33.691;-24.414;36.133
1553640097;-7.812;41.504;34.668;-28.32;46.387
1553640097;-17.09;40.527;35.645;-27.344;44.922
1553640097;-10.742;36.621;36.621;-20.996;41.016
1553640097;-6.836;36.133;35.156;-8.789;36.621
1553640097;-0.977;40.039;34.18;5.371;36.621
1553640097;3.418;41.992;36.621;-3.418;32.227
1553640097;-0.977;37.109;39.551;-7.812;20.02
1553640097;0;40.039;41.504;0.977;8.301
1553640097;7.812;43.945;37.598;-0.488;5.371
1553640097;10.254;43.457;32.715;-3.418;12.207
1553640097;13.184;44.922;31.738;18.066;18.066
1553640097;20.508;41.016;33.691;18.555;18.555
1553640097;22.949;35.645;34.18;2.93;19.531
1553640097;20.02;39.062;31.25;26.855;18.066
1553640097;24.414;41.016;28.809;34.668;20.508
1553640097;21.973;41.992;26.855;25.391;20.02
1553640097;22.949;37.598;29.785;23.438;21.973
1553640097;27.344;30.273;33.203;18.066;26.367
1553640097;19.043;30.762;31.738;14.16;36.133
1553640097;20.02;33.691;31.738;21.484;47.852
1553640097;18.555;34.18;33.203;37.598;46.875
1553640097;29.785;30.762;35.156;32.715;50.781
1553640097;46.875;37.598;33.203;28.32;60.059
1553640097;52.734;39.551;33.203;27.344;63.477
1553640097;57.617;27.344;38.574;45.898;66.895
1553640097;52.246;22.461;38.086;70.801;69.336
1553640097;34.18;22.949;36.133;76.172;64.453
1553640097;23.926;24.902;34.668;48.828;61.035
1553640097;37.598;26.367;32.227;29.297;61.523
1553640097;43.457;29.785;30.762;55.664;57.617
1553640097;35.156;30.762;30.273;56.152;57.617
1553640097;35.156;25.879;26.367;25.391;56.641
1553640097;34.668;27.832;24.902;20.508;51.27
1553640097;35.156;31.25;27.344;43.457;49.316
1553640097;41.992;33.203;24.902;35.645;45.41
1553640097;39.062;31.738;21.484;15.137;46.875
1553640097;31.738;29.297;25.391;25.879;48.828
1553640097;35.645;28.32;26.855;35.156;43.945
1553640097;48.34;30.762;27.344;41.992;52.246
1553640097;44.922;30.273;27.344;59.57;58.105
1553640097;38.086;28.32;25.391;64.941;58.105
1553640097;49.805;30.273;29.785;59.082;57.129
1553640097;50.293;30.273;32.715;35.645;49.316
1553640097;42.969;33.203;29.785;17.578;47.852
1553640097;37.109;34.668;30.273;34.668;50.781
1553640097;36.133;33.691;29.785;43.945;42.48
1553640097;43.457;34.18;30.273;38.574;37.598
1553640097;37.109;32.715;29.785;41.504;36.133
1553640097;30.273;31.738;31.25;57.129;24.414
1553640097;30.273;28.809;38.086;50.781;19.531
1553640097;24.414;29.297;34.668;43.457;18.555
1553640097;22.949;29.785;27.344;49.805;9.766
1553640097;24.902;28.809;30.273;45.898;7.324
1553640097;32.715;34.668;31.25;24.414;8.301
1553640097;30.273;35.645;28.809;-2.441;3.906
1553640097;21.973;33.203;26.367;-3.418;1.953
1553640097;20.02;33.691;26.855;8.301;9.766
1553640097;29.785;31.25;27.344;10.742;20.02
1553640097;35.156;35.645;24.902;7.812;31.738
1553640097;32.715;40.527;25.391;30.273;30.762
1553640097;22.949;33.203;30.273;44.434;24.414
1553640097;23.438;33.203;30.762;21.484;35.156
1553640097;39.062;36.133;28.32;13.672;40.039
1553640097;40.039;37.598;25.391;22.461;40.527
1553640097;39.551;38.574;24.414;26.367;47.852
1553640097;21.484;35.156;21.973;29.785;49.805
1553640097;11.719;34.668;26.855;36.621;49.316
1553640097;31.738;40.527;35.645;36.621;55.664
1553640097;47.852;44.434;34.668;41.016;59.082
1553640097;59.57;41.992;33.691;51.27;60.547
1553640097;49.805;46.875;36.621;61.035;59.57
1553640097;35.156;47.852;36.621;59.082;49.316
1553640097;39.062;44.434;33.691;36.133;41.016
1553640097;41.992;45.898;33.203;18.066;40.527
1553640097;42.969;46.387;34.668;26.367;37.109
1553640097;40.527;46.875;34.18;41.992;30.762
1553640097;42.48;45.41;32.715;32.715;28.32
1553640097;47.363;43.457;31.25;32.227;31.25
1553640097;50.293;47.852;30.273;59.082;33.691
1553640097;37.598;50.293;36.621;66.895;30.762
1553640097;19.043;48.828;39.551;46.387;33.203
1553640097;24.902;55.664;33.691;26.855;38.574
1553640097;15.625;57.617;35.645;25.391;32.715
1553640097;16.602;55.176;38.574;31.25;30.762
1553640097;35.156;57.617;35.156;27.344;29.785
1553640097;33.203;56.641;33.203;26.367;25.391
1553640097;34.668;55.664;34.668;28.809;25.879
1553640097;15.137;54.688;37.109;31.25;22.461
1553640097;9.766;52.246;38.086;28.32;25.879
1553640097;28.809;52.246;38.574;23.926;31.25
1553640097;20.02;54.199;36.621;27.832;19.531
1553640097;13.672;54.688;32.715;34.18;10.742
1553640097;26.855;58.105;28.32;28.809;16.602
1553640097;33.203;61.523;27.344;10.742;13.184
1553640097;23.926;60.547;29.785;17.578;3.418
1553640097;31.738;56.152;35.645;55.664;16.113
1553640097;20.508;54.199;40.039;54.199;11.719
1553640097;9.766;57.129;36.621;9.766;5.859
1553640097;36.133;63.965;31.738;-4.883;20.508
1553640097;30.273;66.895;28.809;4.883;25.391
1553640097;15.625;64.453;32.715;15.625;32.715
1553640097;13.184;64.941;33.203;28.809;27.832
1553640097;27.344;61.035;38.574;37.109;31.738
1553640097;37.109;57.617;40.527;21.484;34.18
1553640097;21.484;59.57;29.785;12.207;34.18
1553640097;27.344;63.965;25.391;40.039;41.992
1553640097;37.109;64.941;25.879;47.363;37.109
1553640097;32.715;62.988;30.762;27.832;34.668
1553640097;29.297;57.129;33.203;16.113;28.32
1553640097;29.785;54.688;28.809;7.324;17.09
1553640097;29.297;60.059;23.438;17.578;8.789
1553640097;39.551;61.523;23.438;25.879;10.254
1553640097;28.32;55.176;25.391;28.32;15.625
1553640097;6.836;50.293;28.32;35.645;20.02
1553640097;16.113;50.293;32.227;21.973;27.344
1553640097;18.066;52.246;30.273;4.883;31.738
1553640097;8.789;56.152;26.367;5.859;27.832
1553640097;20.508;59.082;21.973;23.438;17.09
1553640097;40.527;62.988;18.066;39.551;18.066
1553640097;43.945;54.688;18.555;41.016;20.02
1553640097;34.668;50.293;23.926;34.18;22.461
1553640097;38.086;50.781;24.902;22.949;24.902
1553640097;41.992;45.41;23.926;20.996;22.461
1553640097;52.246;43.457;22.461;33.203;24.414
1553640097;61.523;44.434;24.414;63.477;8.789
1553640097;28.32;43.457;33.203;36.133;0.977
1553640097;2.93;40.039;30.762;-20.02;11.719
1553640097;16.113;39.551;25.391;-5.371;20.508
1553640097;20.996;36.133;28.32;32.227;23.438
1553640097;24.902;36.621;28.32;45.898;31.25
1553640097;34.668;41.016;26.367;36.133;32.715
1553640097;20.508;38.086;25.391;29.785;28.32
1553640097;23.926;35.645;28.32;33.691;29.297
1553640097;51.27;40.527;32.227;43.945;30.273
1553640097;55.176;45.898;27.832;30.273;33.203
1553640097;41.016;43.945;24.902;26.855;30.273
1553640097;42.969;41.504;27.344;47.363;28.809
1553640097;55.176;41.016;28.809;50.293;32.715
1553640097;53.711;35.645;30.762;34.668;24.902
1553640097;38.086;30.762;29.297;31.25;16.602
1553640097;51.758;34.18;31.738;41.992;17.578
1553640097;63.965;37.109;32.227;48.34;20.996
1553640097;45.41;39.551;33.691;61.035;24.414
1553640097;48.34;42.48;36.621;68.359;30.762
1553640097;49.316;40.527;36.133;49.805;35.645
1553640097;35.645;38.574;34.18;20.508;39.551
1553640097;27.344;35.156;29.297;11.719;43.945
1553640097;37.109;33.691;28.32;19.531;44.922
1553640097;36.133;32.227;32.227;35.645;47.363
1553640097;36.621;30.273;34.18;71.289;60.059
1553640097;51.27;34.668;31.738;78.125;61.035
1553640097;53.223;33.203;31.738;55.176;51.27
1553640097;41.016;26.855;29.785;47.852;47.363
1553640097;34.18;26.367;29.785;34.18;49.316
1553640097;51.27;30.273;32.227;37.109;51.758
1553640097;51.27;30.762;30.762;45.41;50.781
1553640097;50.781;29.785;28.32;50.781;41.992
1553640097;49.805;30.273;30.762;44.922;39.551
1553640097;40.039;24.414;35.156;49.805;41.992
1553640097;52.246;21.973;32.227;62.012;43.457
1553640097;55.176;29.297;27.344;42.48;40.527
1553640097;59.57;29.785;27.832;38.574;44.922
1553640097;68.848;25.391;32.227;51.758;50.293
1553640097;61.035;23.438;30.273;62.988;47.852
1553640097;50.293;22.949;33.203;61.035;50.293
1553640097;50.781;22.949;35.156;66.406;50.781
1553640097;55.664;21.973;31.738;77.637;52.246
1553640097;54.199;26.367;32.227;59.57;59.082
1553640097;51.758;25.879;30.762;35.156;65.918
1553640097;46.875;21.484;32.715;34.668;62.012
1553640097;58.105;26.855;36.621;66.406;58.105
1553640097;54.688;26.367;37.109;79.59;60.547
1553640097;49.805;26.367;35.645;59.57;62.012
1553640097;55.664;25.391;35.156;48.828;49.805
1553640097;39.062;20.02;37.598;59.57;42.969
1553640097;36.621;22.461;37.598;61.523;50.293
1553640097;54.688;29.785;32.227;40.527;55.176
1553640097;60.547;35.645;28.32;37.598;54.688
1553640097;55.176;28.809;31.25;52.734;52.246
1553640097;62.5;28.809;31.25;61.035;51.758
1553640097;67.871;33.203;31.25;57.617;51.758
1553640097;58.105;28.32;37.109;58.594;50.293
1553640097;35.645;27.344;37.598;47.852;44.434
1553640097;45.41;29.297;37.109;48.828;44.434
1553640097;51.758;27.832;41.992;57.129;49.316
1553640097;48.828;31.25;38.086;61.523;50.781
1553640097;70.312;38.086;36.621;71.777;48.828
1553640097;73.242;34.18;37.109;60.547;41.016
1553640097;50.781;28.809;35.156;58.105;42.48
1553640097;46.387;27.344;37.598;64.941;40.039
1553640097;65.918;29.297;39.062;64.941;31.25
1553640097;72.266;33.691;37.598;75.195;35.645
1553640097;58.594;34.18;37.598;56.152;40.527
1553640097;50.781;36.621;39.062;31.25;39.551
1553640097;54.688;40.527;38.574;46.875;37.598
1553640097;57.129;39.551;38.086;58.105;40.527
1553640097;53.711;37.109;40.039;52.734;41.504
1553640097;52.734;38.086;41.992;73.73;44.922
1553640097;62.012;34.18;40.527;79.102;46.387
1553640097;59.082;32.227;40.527;47.852;47.363
1553640097;50.293;34.668;40.527;37.109;49.805
1553640097;54.199;31.25;37.598;52.246;51.27
1553640097;67.383;33.691;38.086;58.105;47.363
1553640097;67.871;41.016;39.062;49.316;49.316
1553640097;56.641;35.156;41.016;38.086;47.852
1553640097;59.082;30.762;37.598;37.598;39.062
1553640097;53.711;28.809;32.715;37.598;37.109
1553640097;78.125;25.391;37.598;55.664;33.691
1553640097;91.797;32.227;38.086;64.941;29.785
1553640097;46.387;36.621;33.691;31.25;28.809
1553640097;22.461;30.762;33.203;39.551;31.738
1553640097;48.34;30.762;32.227;65.43;37.109
1553640097;59.57;34.668;32.227;30.273;39.062
1553640097;56.152;33.691;32.715;13.672;40.039
1553640097;47.852;26.367;30.762;24.414;38.574
1553640097;35.156;25.879;31.25;16.602;44.922
1553640097;52.246;32.715;31.25;17.09;48.34
1553640097;47.852;30.273;30.762;29.297;41.016
1553640097;49.316;30.273;35.645;39.551;45.898
1553640097;69.336;37.598;39.062;50.781;49.805
1553640097;68.359;38.574;40.527;60.547;41.504
1553640097;39.062;37.109;37.598;59.082;45.41
1553640097;43.457;31.738;36.621;62.5;46.387
1553640097;69.824;28.32;38.086;50.781;41.504
1553640097;52.246;32.227;37.598;43.457;38.574
1553640097;57.617;38.086;33.691;58.105;42.48
1553640097;77.148;42.48;29.297;34.18;44.922
1553640097;74.219;41.504;32.227;31.738;40.527
1553640097;69.336;39.551;34.668;62.5;40.039
1553640097;67.383;40.527;32.227;65.918;39.062
1553640097;58.594;40.039;28.809;41.504;38.086
1553640097;56.641;38.574;31.25;21.973;33.203
1553640097;56.152;40.039;32.715;27.832;25.879
1553640097;37.598;38.086;29.785;28.809;21.484
1553640097;35.156;33.203;28.32;28.809;16.113
1553640097;45.41;35.156;30.762;23.926;16.602
1553640097;54.688;39.062;30.762;30.762;30.762
1553640097;58.594;40.039;28.32;35.645;38.574
1553640097;83.008;40.527;30.762;44.434;40.527
1553640097;82.52;41.504;29.785;62.5;43.945
1553640097;61.523;42.969;28.809;57.617;47.852
1553640097;65.43;41.992;29.785;50.293;49.316
1553640098;67.871;41.504;27.832;57.129;43.457
1553640098;71.777;43.945;28.32;60.059;41.992
1553640098;72.754;45.41;30.762;51.27;48.34
1553640098;76.172;46.387;29.297;51.758;48.34
1553640098;82.52;40.527;27.344;56.641;43.457
1553640098;86.426;41.992;27.344;47.363;42.969
1553640098;77.148;44.434;29.297;50.293;42.48
1553640098;63.477;43.457;33.203;59.082;35.645
1553640098;53.223;42.969;33.691;41.016;34.18
1553640098;57.129;41.016;31.25;31.25;40.527
1553640098;51.27;41.992;31.25;37.109;34.18
1553640098;44.922;42.48;27.832;40.039;31.25
1553640098;61.523;39.062;27.344;44.922;33.691
1553640098;64.453;38.086;28.809;57.129;28.809
1553640098;46.387;41.504;31.738;32.227;26.855
1553640098;39.551;43.457;31.738;9.277;25.879
1553640098;43.945;47.852;28.32;25.391;24.902
1553640098;37.598;44.922;30.273;23.926;24.414
1553640098;36.621;47.852;33.203;24.414;22.461
1553640098;43.457;49.316;34.18;29.297;23.438
1553640098;42.48;46.387;36.133;31.25;23.438
1553640098;38.086;46.387;33.691;20.508;21.484
1553640098;49.805;45.898;26.855;22.461;34.668
1553640098;56.152;49.805;28.809;41.016;41.992
1553640098;53.223;48.34;35.645;32.715;31.738
1553640098;55.176;45.41;40.527;38.574;34.18
1553640098;43.457;44.922;41.016;46.875;31.738
1553640098;42.969;38.574;38.086;45.41;32.227
1553640098;42.48;36.621;36.133;33.691;37.598
1553640098;31.25;37.598;34.18;20.02;29.297
1553640098;40.527;31.25;40.527;17.09;25.879
1553640098;49.316;26.367;43.457;30.273;35.156
1553640098;45.898;29.297;35.645;49.805;44.922
1553640098;50.293;28.809;35.645;48.34;46.875
1553640098;47.363;24.414;38.086;52.246;46.387
1553640098;47.852;24.902;36.133;61.523;53.711
1553640098;57.617;24.414;35.156;56.641;62.988
1553640098;56.152;21.973;38.086;55.176;64.453
1553640098;62.988;25.879;36.621;51.758;61.035
1553640098;72.754;34.668;38.086;47.852;64.453
1553640098;62.5;28.32;37.109;41.992;62.5
1553640098;44.434;20.508;32.227;48.34;48.34
1553640098;42.969;24.902;33.203;60.059;37.598
1553640098;50.781;27.344;35.645;61.523;40.527
1553640098;48.828;25.391;35.156;62.988;42.969
1553640098;49.805;25.879;33.203;58.594;48.828
1553640098;35.156;26.367;33.203;46.387;43.945
1553640098;27.832;26.367;32.715;40.039;38.086
1553640098;47.363;31.25;31.25;37.109;42.969
1553640098;59.57;27.344;33.203;42.48;51.27
1553640098;50.781;22.949;33.691;51.758;53.711
1553640098;45.898;30.762;32.227;62.012;55.176
1553640098;51.758;32.715;33.203;71.777;65.43
1553640098;46.387;28.32;29.297;73.242;60.547
1553640098;35.645;25.879;24.902;55.664;54.199
1553640098;39.062;26.367;27.344;32.715;47.852
1553640098;36.133;31.738;31.738;38.574;44.922
1553640098;28.809;34.668;30.273;54.199;51.27
1553640098;36.133;32.227;29.785;42.48;49.805
1553640098;31.738;28.809;31.738;25.879;43.945
1553640098;30.273;27.344;32.227;26.855;43.945
1553640098;22.461;31.25;30.273;34.18;41.504
1553640098;26.367;33.203;29.785;36.133;41.504
1553640098;30.273;34.668;29.785;30.273;45.41
1553640098;29.297;38.574;32.715;24.414;41.992
1553640098;40.039;33.691;31.25;18.066;41.992
1553640098;28.809;31.25;26.367;22.461;41.992
1553640098;22.461;36.621;28.809;30.762;38.086
1553640098;30.762;34.668;28.32;31.25;35.156
1553640098;39.062;33.691;29.785;29.785;31.25
1553640098;27.832;35.645;33.691;37.598;27.344
1553640098;16.113;33.203;32.227;42.969;23.926
1553640098;21.484;33.203;31.25;40.039;23.438
1553640098;27.832;35.156;31.738;36.621;22.949
1553640098;30.762;32.715;30.762;39.551;22.949
1553640098;33.203;32.227;32.715;49.316;27.344
1553640098;32.715;34.18;31.25;44.922;21.484
1553640098;34.668;33.691;30.762;37.109;22.461
1553640098;40.527;36.133;36.133;42.969;29.785
1553640098;40.527;39.062;35.156;45.41;28.32
1553640098;36.133;37.109;33.691;32.227;25.391
1553640098;31.738;35.645;34.18;25.391;31.738
1553640098;33.691;35.645;33.203;26.855;36.133
1553640098;40.527;37.109;34.18;28.32;36.133
1553640098;37.598;36.621;33.691;45.41;36.621
1553640098;28.809;31.738;29.297;43.457;32.715
1553640098;30.762;32.715;30.273;21.484;35.156
1553640098;36.133;33.691;35.645;36.621;42.969
1553640098;43.457;28.809;37.109;46.387;48.34
1553640098;40.039;27.344;34.18;39.551;42.969
1553640098;27.832;26.855;31.738;40.527;36.133
1553640098;21.973;29.297;33.691;41.016;33.691
1553640098;26.367;27.832;34.668;38.086;34.668
1553640098;42.969;25.879;31.738;44.922;27.344
1553640098;37.109;24.902;30.273;42.969;19.043
1553640098;35.645;28.809;29.785;21.484;22.949
1553640098;44.922;33.203;33.203;18.555;26.855
1553640098;27.344;26.855;32.227;25.879;30.273
1553640098;20.996;32.715;29.297;25.391;36.133
1553640098;25.879;37.109;30.273;29.297;39.062
1553640098;25.391;30.762;30.273;37.598;42.48
1553640098;23.438;31.25;31.738;26.855;37.598
1553640098;25.391;34.668;31.25;17.09;28.32
1553640098;27.344;29.785;30.273;26.367;27.832
1553640098;25.391;28.32;30.273;32.715;26.367
1553640098;22.461;33.203;31.25;31.738;26.855
1553640098;21.973;37.109;34.18;36.133;24.414
1553640098;25.391;37.598;32.227;29.297;17.578
1553640098;22.949;38.574;31.738;16.602;15.625
1553640098;21.973;37.598;32.227;25.391;15.625
1553640098;34.18;34.668;29.785;29.785;13.672
1553640098;25.391;32.715;27.832;23.438;6.836
1553640098;11.719;33.203;32.227;15.137;2.93
1553640098;18.066;37.109;32.227;2.441;14.648
1553640098;13.672;35.156;29.297;10.742;17.578
1553640098;11.719;33.691;34.18;22.949;14.16
1553640098;20.996;35.645;36.621;35.645;18.066
1553640098;16.113;35.645;36.621;28.32;18.555
1553640098;12.207;38.086;36.621;22.461;17.578
1553640098;18.555;41.504;33.203;26.855;17.578
1553640098;18.555;35.645;29.785;20.996;14.648
1553640098;18.555;34.18;32.715;11.23;16.602
1553640098;17.578;38.574;37.109;7.324;25.879
1553640098;18.555;34.668;35.156;26.367;25.879
1553640098;30.273;36.621;33.691;36.621;25.391
1553640098;25.391;41.992;35.156;24.414;31.738
1553640098;14.648;43.945;35.645;9.766;39.062
1553640098;9.766;45.41;36.621;10.254;26.855
1553640098;-0.977;41.016;41.504;19.043;17.09
1553640098;1.465;39.551;43.945;16.602;16.113
1553640098;5.859;42.969;38.086;1.953;16.602
1553640098;-2.93;45.898;35.645;4.883;8.301
1553640098;-6.836;45.898;37.598;8.789;-3.418
1553640098;-8.789;43.945;40.039;5.371;-3.418
1553640098;-11.23;45.898;38.086;-0.977;-6.836
1553640098;-13.672;48.828;33.203;-5.859;-14.648
1553640098;0.488;52.246;27.832;-4.395;-19.531
1553640098;2.441;54.199;23.926;-22.461;-18.555
1553640098;-9.277;52.734;26.855;-32.227;-15.137
1553640098;-8.301;52.734;30.762;-16.113;-11.23
1553640098;-7.812;51.758;32.715;-6.836;-12.207
1553640098;-8.789;52.734;35.156;-15.625;-16.602
1553640098;-12.695;54.199;36.133;-19.043;-19.043
1553640098;-20.508;51.758;33.203;-22.949;-19.043
1553640098;-20.508;52.734;33.203;-17.578;-18.555
1553640098;-24.902;53.711;31.738;7.324;-17.09
1553640098;-33.203;53.711;32.715;-0.488;-15.137
1553640098;-32.227;51.758;35.156;-24.902;-12.695
1553640098;-25.391;47.363;36.133;-27.344;-11.719
1553640098;-24.414;49.316;37.598;-28.809;-13.184
1553640098;-18.555;51.27;34.668;-28.809;-12.695
1553640098;-26.367;49.805;33.203;-28.809;-18.066
1553640098;-25.391;52.246;32.715;-20.996;-18.555
1553640098;-15.137;54.199;30.273;-22.461;-11.23
1553640098;-16.113;53.223;33.203;-10.742;-12.695
1553640098;-20.996;50.293;37.109;-2.93;-18.066
1553640098;1.465;50.293;35.156;-2.441;-12.207
1553640098;21.973;51.758;35.156;5.859;-11.719
1553640098;-6.348;51.758;35.156;13.184;-17.09
1553640098;-19.043;55.664;33.203;13.672;-10.254
1553640098;-8.301;59.082;33.691;-1.953;-1.465
1553640098;-9.766;58.594;36.621;-10.254;5.371
1553640098;-9.277;54.199;39.062;-20.508;6.348
1553640098;-14.16;52.734;36.133;-27.832;-1.465
1553640098;-9.766;54.688;34.668;-5.371;1.953
1553640098;0.977;53.711;37.109;-2.441;12.695
1553640098;2.441;55.176;36.133;-22.461;8.789
1553640098;7.812;57.129;35.156;-18.066;-2.441
1553640098;2.441;53.711;35.645;-1.953;-1.465
1553640098;-15.625;51.27;36.133;7.324;0.977
1553640098;-22.461;51.758;34.668;7.812;-6.348
1553640098;-13.672;55.176;32.715;15.625;-3.418
1553640098;2.93;58.105;30.273;20.508;3.418
1553640098;7.812;57.617;30.273;-1.465;1.465
1553640098;4.883;57.129;31.738;-18.066;1.953
1553640098;8.789;54.688;32.227;-11.719;6.348
1553640098;7.812;53.711;35.645;-6.348;11.719
1553640098;2.93;54.199;38.574;-3.418;16.602
1553640098;-3.418;52.734;34.668;-4.883;8.301
1553640098;3.906;54.199;30.273;3.418;2.93
1553640098;10.254;54.199;28.809;-0.977;10.254
1553640098;9.766;58.594;24.902;-7.812;17.09
1553640098;2.93;57.617;28.32;12.695;11.23
1553640098;-9.766;48.34;33.691;15.625;-4.883
1553640098;3.418;44.434;33.203;9.277;-3.418
1553640098;14.648;47.852;30.762;12.207;10.254
1553640098;19.531;51.27;28.32;17.578;18.066
1553640098;4.883;46.875;31.25;7.324;6.348
1553640098;-4.395;38.574;34.18;1.465;0.488
1553640098;11.23;37.598;34.18;12.207;16.113
1553640098;24.414;41.504;30.762;8.301;20.02
1553640098;22.949;44.922;31.25;5.371;19.531
1553640098;21.484;43.945;37.109;33.691;30.273
1553640098;22.949;42.48;39.551;43.945;31.738
1553640098;17.578;44.434;36.133;18.555;21.973
1553640098;13.672;43.945;29.297;13.672;15.625
1553640098;14.16;43.945;28.32;35.156;17.09
1553640098;19.531;44.434;32.715;34.668;20.996
1553640098;21.973;42.48;33.691;15.137;19.043
1553640098;14.648;35.645;33.203;2.93;20.996
1553640098;22.949;38.086;26.367;-1.953;21.973
1553640098;31.25;45.898;22.949;0.977;12.695
1553640098;23.438;46.875;25.391;17.09;4.395
1553640098;21.484;40.039;27.832;26.367;7.324
1553640098;26.367;38.574;31.738;26.855;18.066
1553640098;36.133;43.945;30.762;15.137;22.461
1553640098;37.109;48.34;31.25;4.883;15.625
1553640098;31.738;45.41;37.109;12.207;18.066
1553640098;25.879;35.645;38.574;27.832;23.438
1553640098;16.602;38.574;35.156;62.012;20.996
1553640098;13.672;45.41;33.203;56.152;19.043
1553640098;15.137;42.48;32.715;17.578;20.02
1553640098;16.113;36.133;34.18;17.578;22.949
1553640098;24.902;33.691;35.156;26.367;34.18
1553640098;24.902;35.156;32.227;27.344;34.18
1553640098;24.414;45.41;29.297;20.02;34.18
1553640098;42.969;46.875;27.832;22.949;45.898
1553640098;46.387;37.598;31.25;40.039;48.34
1553640098;36.133;33.691;36.133;42.48;44.922
1553640098;28.32;36.621;41.016;37.598;38.574
1553640098;31.738;40.039;38.574;41.992;29.297
1553640098;39.551;41.504;33.203;49.316;18.555
1553640098;27.344;45.898;32.715;44.434;13.184
1553640098;20.996;48.34;36.133;30.762;14.16
1553640098;31.738;46.875;41.016;21.973;20.508
1553640098;30.762;43.457;38.574;24.902;19.531
1553640098;21.973;41.992;35.645;15.137;12.695
1553640098;20.02;39.551;34.668;13.184;18.066
1553640098;19.043;36.133;37.109;32.227;33.203
1553640098;24.902;35.645;43.457;28.809;43.457
1553640098;45.898;36.621;39.551;34.18;38.086
1553640098;48.828;37.109;34.18;53.711;31.25
1553640098;13.184;35.156;33.691;32.715;31.25
1553640098;3.906;33.203;38.574;25.391;30.762
1553640098;20.02;31.25;39.551;32.227;25.879
1553640098;21.973;32.227;37.598;19.043;29.785
1553640098;27.832;37.109;43.457;19.043;31.738
1553640098;33.691;40.039;41.016;25.879;33.203
1553640098;33.203;40.039;33.691;33.691;32.227
1553640098;37.109;40.039;35.645;44.922;27.344
1553640098;36.133;39.551;38.086;43.945;23.926
1553640098;30.273;40.039;38.086;36.133;20.996
1553640098;44.434;41.016;39.062;35.156;20.508
1553640098;52.734;41.992;37.598;33.691;26.367
1553640098;40.527;44.434;35.645;26.367;38.574
1553640098;28.32;43.945;40.039;38.086;46.387
1553640098;25.391;41.504;42.48;49.805;41.016
1553640098;30.762;39.551;40.527;51.27;26.367
1553640098;31.25;40.527;38.086;32.715;28.32
1553640098;26.855;40.527;36.621;16.113;34.668
1553640098;42.969;39.062;36.133;20.02;29.297
1553640098;51.27;37.598;35.156;18.555;23.438
1553640098;20.996;34.18;38.574;33.203;17.09
1553640098;16.602;31.738;39.551;27.832;20.996
1553640098;25.391;28.809;37.598;18.555;22.461
1553640098;20.02;27.832;38.086;39.062;14.648
1553640099;20.996;26.367;41.016;25.391;17.578
1553640099;24.414;24.414;41.992;23.926;23.926
1553640099;31.25;24.414;40.527;43.457;26.367
1553640099;38.086;28.32;38.574;38.086;27.344
1553640099;37.598;31.25;38.574;31.25;39.551
1553640099;35.645;26.855;39.062;34.18;52.246
1553640099;33.691;23.438;36.621;47.363;53.711
1553640099;38.086;25.391;36.133;47.852;53.711
1553640099;41.504;28.809;31.738;30.762;50.293
1553640099;40.527;33.691;28.32;31.25;52.246
1553640099;42.48;31.738;35.156;49.805;48.34
1553640099;43.457;27.832;41.504;43.457;38.086
1553640099;40.039;26.855;41.504;32.715;38.574
1553640099;39.062;28.809;41.504;37.109;37.109
1553640099;41.016;32.715;37.109;38.086;28.32
1553640099;33.203;34.668;37.598;34.668;19.043
1553640099;22.949;32.227;42.969;43.457;16.113
1553640099;22.461;28.809;43.945;45.41;18.555
1553640099;24.902;30.273;42.48;32.227;20.996
1553640099;23.438;34.668;36.133;12.695;20.996
1553640099;14.16;35.156;35.156;3.906;22.461
1553640099;19.531;32.227;38.086;22.949;25.879
1553640099;23.438;30.273;39.062;25.879;34.668
1553640099;22.949;31.25;41.016;25.879;48.828
1553640099;29.297;37.109;38.086;26.367;48.828
1553640099;22.461;40.527;32.227;36.621;34.18
1553640099;16.602;41.992;27.344;47.363;34.18
1553640099;17.578;41.992;29.297;36.133;40.527
1553640099;22.949;40.527;36.621;22.461;35.645
1553640099;30.762;41.992;36.621;12.695;26.367
1553640099;39.062;42.48;38.574;21.973;23.438
1553640099;39.062;36.133;41.504;41.016;21.973
1553640099;23.926;35.156;39.551;70.801;21.484
1553640099;12.207;36.621;38.086;59.57;18.555
1553640099;23.438;36.133;35.645;9.277;20.02
1553640099;34.18;39.062;35.645;-1.465;21.484
1553640099;38.086;37.109;41.016;20.02;18.066
1553640099;43.945;37.598;42.48;29.297;20.02
1553640099;37.109;39.062;40.527;8.789;19.531
1553640099;26.367;37.109;41.016;4.395;8.789
1553640099;12.695;40.527;40.039;0.977;5.371
1553640099;-2.93;41.016;34.18;4.395;15.625
1553640099;6.348;39.062;31.738;26.367;23.438
1553640099;18.555;40.527;35.645;25.391;25.879
1553640099;12.207;39.551;33.691;15.137;25.879
1553640099;11.719;40.039;35.156;39.062;27.344
1553640099;17.09;41.992;36.621;41.504;20.996
1553640099;23.926;35.645;37.598;17.578;18.555
1553640099;22.461;33.203;40.527;0;21.484
1553640099;20.996;37.109;36.133;6.348;22.461
1553640099;16.602;38.574;28.809;26.855;17.09
1553640099;22.949;35.645;29.297;32.715;11.23
1553640099;22.949;32.715;35.156;18.066;16.602
1553640099;15.137;31.738;37.109;9.277;19.531
1553640099;23.438;35.645;33.691;20.996;18.555
1553640099;23.438;36.621;32.227;23.438;12.695
1553640099;17.09;33.691;33.691;28.32;11.23
1553640099;24.902;38.086;38.574;39.551;21.973
1553640099;34.668;38.574;41.504;41.992;32.227
1553640099;38.574;36.133;39.062;30.273;31.25
1553640099;42.969;36.133;35.156;22.461;28.32
1553640099;37.598;32.227;36.133;38.086;26.367
1553640099;30.273;33.203;36.621;32.227;18.555
1553640099;23.926;36.621;33.203;5.859;8.301
1553640099;13.672;36.133;31.738;-10.742;10.254
1553640099;40.527;37.598;31.25;35.156;15.137
1553640099;67.383;39.551;31.738;99.609;9.766
1553640099;36.621;37.598;32.715;65.43;7.324
1553640099;-0.488;37.109;34.668;10.742;11.719
1553640099;-7.812;34.668;36.621;-9.277;20.02
1553640099;-7.812;34.18;34.18;-26.367;28.32
1553640099;-6.836;36.133;29.785;-20.508;27.832
1553640099;-2.93;33.691;31.25;-10.254;18.066
1553640099;5.859;30.762;35.156;-1.465;9.277
1553640099;17.578;29.785;35.156;5.859;16.602
1553640099;23.438;29.297;34.18;4.395;33.691
1553640099;27.832;34.18;35.156;10.254;38.086
1553640099;29.785;37.598;35.156;24.414;33.691
1553640099;33.203;33.691;36.621;30.273;35.156
1553640099;30.762;25.391;40.039;24.902;38.574
1553640099;32.227;23.438;37.598;29.297;34.18
1553640099;28.32;31.25;32.715;38.574;28.32
1553640099;26.367;29.297;33.691;32.227;23.438
1553640099;41.504;25.391;37.598;33.203;23.438
1553640099;41.016;28.32;38.086;45.41;21.973
1553640099;26.367;33.203;36.133;24.414;13.184
1553640099;27.832;38.086;31.738;16.113;13.184
1553640099;43.945;39.062;28.32;19.531;20.02
1553640099;24.414;39.062;31.25;23.926;18.066
1553640099;5.859;37.109;38.086;38.086;11.23
1553640099;18.066;32.715;40.527;25.879;12.695
1553640099;18.066;35.156;41.504;17.578;20.508
1553640099;13.184;38.574;39.062;16.113;27.832
1553640099;22.461;38.574;33.691;17.578;34.668
1553640099;26.367;39.062;33.691;25.391;36.621
1553640099;32.715;36.621;38.574;35.645;39.551
1553640099;45.898;36.133;39.551;52.246;43.945
1553640099;35.156;39.551;34.18;39.551;39.062
1553640099;33.691;42.969;29.785;18.066;38.574
1553640099;43.945;41.504;27.344;20.996;43.945
1553640099;35.156;37.598;30.762;27.344;40.527
1553640099;34.18;33.203;39.551;48.34;38.574
1553640099;34.668;27.832;38.574;45.41;36.621
1553640099;32.227;29.297;36.133;29.785;31.738
1553640099;37.109;33.691;35.645;22.949;33.691
1553640099;34.668;35.645;32.227;23.438;34.18
1553640099;33.203;33.691;29.785;33.203;21.973
1553640099;40.527;34.18;27.344;31.25;14.648
1553640099;54.688;36.621;30.273;38.574;17.578
1553640099;52.246;36.621;32.227;45.898;15.625
1553640099;20.508;35.156;34.668;34.18;11.719
1553640099;9.277;31.738;38.574;25.879;13.672
1553640099;11.23;30.762;39.062;31.738;24.902
1553640099;18.066;32.715;36.133;22.949;36.133
1553640099;32.715;37.598;33.203;8.789;40.039
1553640099;34.668;37.109;32.715;12.695;43.945
1553640099;35.156;33.203;34.18;27.832;54.688
1553640099;44.434;34.18;35.645;54.688;61.523
1553640099;38.086;36.621;35.645;43.945;57.129
1553640099;31.738;39.062;32.227;6.836;45.898
1553640099;49.316;42.48;30.762;14.648;40.527
1553640099;43.457;41.016;31.25;32.715;42.48
1553640099;29.297;34.668;34.668;36.621;41.992
1553640099;25.391;31.738;37.109;41.016;31.25
1553640099;22.949;31.25;36.133;33.691;29.297
1553640099;21.973;32.715;35.156;39.551;40.039
1553640099;19.531;34.668;35.156;53.711;40.527
1553640099;23.438;35.156;37.598;48.34;33.203
1553640099;27.832;36.133;36.621;36.621;21.973
1553640099;21.973;34.668;35.645;35.156;8.789
1553640099;26.855;33.691;39.551;30.762;17.09
1553640099;38.574;32.227;43.457;44.434;29.297
1553640099;35.156;33.691;42.48;46.387;28.809
1553640099;25.391;34.668;37.109;26.855;23.438
1553640099;27.344;37.598;33.691;12.207;27.344
1553640099;36.621;40.039;33.691;22.461;35.156
1553640099;41.016;38.086;33.691;32.715;34.668
1553640099;39.062;35.156;36.621;34.18;35.645
1553640099;38.574;31.25;37.109;41.504;40.039
1553640099;35.645;33.203;32.715;34.668;43.457
1553640099;18.555;37.109;34.668;24.902;29.297
1553640099;13.672;35.156;40.039;36.133;26.367
1553640099;31.25;30.762;42.969;41.504;37.598
1553640099;35.645;32.715;42.48;42.48;45.898
1553640099;38.574;39.062;38.086;49.316;46.387
1553640099;44.434;41.992;36.133;54.199;47.852
1553640099;37.598;41.992;36.621;53.711;47.852
1553640099;44.922;42.969;37.598;48.34;47.852
1553640099;59.082;42.48;38.574;35.645;50.781
1553640099;52.734;40.039;33.691;31.738;40.039
1553640099;40.527;42.969;32.227;30.762;25.391
1553640099;32.227;44.922;31.738;25.879;22.949
1553640099;28.809;41.504;27.344;32.715;20.508
1553640099;29.785;37.598;29.785;25.879;12.207
1553640099;29.785;34.18;32.715;21.973;7.324
1553640099;29.297;32.227;33.691;22.949;10.254
1553640099;27.344;33.691;32.227;14.16;16.602
1553640099;38.574;37.109;27.344;16.602;20.02
1553640099;47.363;35.645;27.832;19.043;25.391
1553640099;47.363;31.25;27.832;27.344;27.832
1553640099;53.223;32.227;26.855;26.855;32.715
1553640099;45.898;35.156;28.809;33.691;36.133
1553640099;25.391;34.18;32.227;25.879;35.156
1553640099;12.695;32.715;34.668;17.09;36.621
1553640099;17.578;30.762;35.645;24.902;40.527
1553640099;22.461;27.344;36.621;26.855;41.504
1553640099;24.902;27.344;32.715;26.367;38.086
1553640099;33.203;32.227;28.809;26.855;37.598
1553640099;38.086;35.645;28.32;30.273;40.039
1553640099;35.645;36.621;28.32;41.504;38.086
1553640099;40.039;36.133;31.25;49.316;31.25
1553640099;35.645;34.668;30.762;40.039;26.855
1553640099;34.18;33.691;29.785;30.762;30.273
1553640099;47.363;29.785;28.809;22.949;35.645
1553640099;40.039;27.344;29.785;29.785;32.227
1553640099;34.668;27.344;30.762;40.527;30.273
1553640099;40.527;26.367;28.809;34.668;30.762
1553640099;35.645;25.391;26.367;40.039;30.762
1553640099;41.016;24.902;28.32;41.016;33.691
