timestamps;TP9;AF7;AF8;TP10;Right AUX
1553638964;12.695;26.367;26.367;26.855;32.715
1553638964;13.184;25.879;29.785;15.137;36.133
1553638964;23.438;32.715;32.227;20.02;29.297
1553638964;2.93;35.645;33.691;44.434;32.715
1553638964;12.695;33.691;33.203;43.945;31.738
1553638964;9.766;30.762;29.785;30.762;24.414
1553638964;-7.324;27.832;27.344;17.578;28.809
1553638964;28.32;27.344;27.344;18.555;28.809
1553638964;34.18;28.32;27.832;30.273;23.926
1553638964;16.602;31.25;29.785;25.391;22.461
1553638964;24.414;41.992;27.344;18.555;19.043
1553638964;26.855;37.109;27.344;22.949;18.555
1553638964;17.578;29.297;32.715;19.531;20.508
1553638964;0;32.227;39.062;28.809;21.973
1553638964;-4.395;37.109;40.527;39.551;28.809
1553638964;16.113;44.434;36.621;46.387;35.156
1553638964;21.484;45.898;32.227;42.48;27.344
1553638964;18.555;46.387;37.109;24.902;28.809
1553638964;11.23;43.457;40.039;16.602;32.715
1553638964;26.855;33.691;39.062;31.25;33.691
1553638964;12.695;35.645;40.039;20.996;28.32
1553638964;-12.695;41.016;38.574;7.324;27.344
1553638964;-3.418;39.062;39.062;27.344;33.203
1553638964;-3.418;37.109;40.039;32.227;37.598
1553638964;22.461;39.062;40.527;38.086;47.852
1553638964;42.969;39.551;35.645;27.344;69.824
1553638964;39.062;44.434;34.668;21.973;56.641
1553638964;30.762;52.734;38.086;39.062;22.949
1553638964;28.809;57.617;35.156;41.016;13.672
1553638964;32.227;56.641;30.762;46.387;7.812
1553638964;63.477;51.758;26.367;40.039;16.113
1553638964;70.312;53.711;25.391;22.949;21.973
1553638964;29.297;62.5;23.926;25.879;19.531
1553638964;16.602;63.477;22.461;15.137;23.926
1553638964;21.484;57.617;23.926;16.113;27.832
1553638964;26.367;48.828;26.367;29.785;21.484
1553638964;47.363;46.387;25.879;33.691;26.855
1553638964;24.414;49.805;22.461;44.922;32.227
1553638964;7.812;50.781;20.996;50.293;29.297
1553638964;38.086;47.363;22.949;36.133;26.367
1553638964;61.035;49.805;23.926;27.344;31.25
1553638964;62.012;55.176;24.902;23.438;37.598
1553638964;46.875;49.316;23.926;21.973;32.227
1553638964;40.039;42.969;27.832;26.367;29.297
1553638964;25.879;48.828;26.855;20.508;33.203
1553638964;28.32;53.711;22.461;44.922;36.621
1553638964;45.898;52.246;27.832;76.172;31.738
1553638964;24.902;53.223;27.832;63.965;22.949
1553638964;23.926;49.316;32.227;48.34;30.762
1553638964;31.738;40.527;36.133;20.996;41.504
1553638964;34.18;37.598;29.297;20.02;44.434
1553638964;21.973;36.133;29.297;36.133;36.133
1553638964;14.648;41.016;29.297;8.301;28.809
1553638964;39.062;39.062;21.973;22.949;43.945
1553638964;72.266;33.691;20.02;55.664;41.992
1553638964;76.66;34.668;23.926;42.48;29.785
1553638964;40.039;33.203;25.391;13.184;37.109
1553638964;16.602;35.156;27.832;0.977;38.574
1553638964;12.695;34.668;32.715;10.254;39.062
1553638964;2.93;33.691;27.832;8.789;26.855
1553638964;12.207;34.18;29.297;8.789;21.973
1553638964;4.883;35.645;40.527;13.672;22.461
1553638964;-8.789;39.551;38.086;24.414;29.297
1553638964;27.344;45.41;32.227;44.434;39.062
1553638964;55.176;46.875;34.18;33.691;33.203
1553638964;24.414;43.945;26.367;-5.371;25.879
1553638964;11.719;42.48;24.414;-0.488;31.25
1553638964;22.461;39.062;33.203;34.668;27.832
1553638964;1.465;31.25;35.645;35.156;11.23
1553638964;9.277;26.367;32.715;33.203;18.555
1553638964;48.34;29.785;31.738;34.668;32.227
1553638964;47.363;33.203;30.273;24.902;18.555
1553638964;21.973;37.109;28.809;35.156;2.441
1553638964;17.578;37.598;26.367;28.809;5.859
1553638964;37.109;39.551;24.902;11.23;12.207
1553638964;44.922;48.828;29.785;15.137;16.113
1553638964;29.297;49.316;30.273;13.672;17.09
1553638964;-1.465;46.875;26.855;0.488;15.137
1553638964;4.395;48.34;28.32;0;22.461
1553638964;30.762;43.945;28.809;17.578;39.062
1553638964;26.855;45.41;24.902;23.926;38.086
1553638964;32.715;46.875;26.855;34.18;30.273
1553638964;24.414;41.016;29.785;35.156;29.297
1553638964;23.926;43.945;28.809;34.18;29.785
1553638964;50.293;39.551;30.273;22.949;38.086
1553638964;45.898;26.855;30.762;34.18;40.039
1553638964;34.668;39.551;34.18;46.875;33.203
1553638964;35.645;56.641;38.086;31.738;37.109
1553638964;29.785;58.105;35.156;37.109;35.156
1553638964;21.973;58.105;37.598;45.898;25.391
1553638964;22.461;57.129;42.48;19.043;35.645
1553638964;24.414;54.199;40.039;34.668;40.039
1553638964;32.715;53.711;41.992;58.594;42.969
1553638964;38.574;52.734;47.852;35.156;41.016
1553638964;38.574;42.48;46.387;26.855;37.109
1553638964;41.504;29.297;42.48;33.691;33.691
1553638964;42.969;32.715;39.062;38.086;34.668
1553638964;10.742;37.109;40.527;32.227;33.691
1553638964;4.883;34.18;41.504;17.578;16.113
1553638964;38.086;36.621;37.109;33.203;17.578
1553638964;24.902;35.645;33.691;31.25;29.785
1553638964;5.859;31.738;41.992;35.156;28.32
1553638964;13.184;34.668;48.828;40.527;27.832
1553638964;24.414;35.645;49.316;40.039;30.273
1553638964;60.547;35.645;50.781;58.594;40.039
1553638965;53.711;37.598;47.363;66.895;36.621
1553638965;28.809;41.016;43.945;55.176;19.531
1553638965;60.547;35.156;41.992;17.09;16.113
1553638965;40.527;27.832;40.039;-11.23;20.02
1553638965;13.672;29.297;41.992;17.09;25.879
1553638965;16.113;34.18;49.805;43.457;20.508
1553638965;4.395;35.156;55.176;15.137;18.555
1553638965;8.789;33.203;52.246;-7.324;21.484
1553638965;13.672;30.762;50.293;0.977;23.438
1553638965;-1.953;24.902;56.152;16.113;19.043
1553638965;-2.93;26.367;58.594;19.043;12.207
1553638965;3.418;34.18;55.664;16.602;12.207
1553638965;-12.207;34.668;55.664;19.531;18.555
1553638965;13.184;26.367;58.594;12.207;12.207
1553638965;20.508;26.855;58.594;8.301;7.324
1553638965;-5.859;27.832;50.293;6.348;2.441
1553638965;-17.09;26.367;45.898;-5.859;-0.488
1553638965;10.742;30.762;49.316;23.438;3.906
1553638965;47.363;35.645;46.387;48.828;8.301
1553638965;14.16;42.48;37.598;25.391;30.762
1553638965;8.301;37.109;41.016;18.066;20.508
1553638965;-6.836;25.391;52.246;-3.418;0.977
1553638965;-29.297;24.902;43.457;-42.969;-1.465
1553638965;-7.324;28.809;41.992;-18.555;-15.137
1553638965;2.441;38.086;47.852;27.344;-1.465
1553638965;0;46.387;46.387;21.973;13.672
1553638965;26.855;42.969;50.781;8.301;18.066
1553638965;41.992;40.039;44.922;13.672;33.691
1553638965;27.344;44.922;35.645;37.598;23.438
1553638965;63.477;43.945;48.828;94.238;36.621
1553638965;51.27;32.715;54.688;34.668;27.344
1553638965;4.395;26.855;48.34;-30.762;-4.395
1553638965;22.461;45.41;47.363;-4.883;10.742
1553638965;37.598;58.594;41.504;6.836;19.043
1553638965;41.992;57.617;43.457;11.23;27.344
1553638965;11.719;51.27;53.223;46.387;46.875
1553638965;1.953;51.758;59.082;92.773;62.988
1553638965;31.25;62.012;56.152;83.984;63.477
1553638965;34.668;58.594;53.223;65.918;66.895
1553638965;36.133;59.082;49.316;52.734;56.152
1553638965;39.551;58.594;45.898;55.176;43.457
1553638965;66.406;58.105;49.316;47.363;57.617
1553638965;64.453;67.383;55.664;35.645;69.336
1553638965;29.297;69.336;54.199;53.223;62.988
1553638965;28.809;60.059;50.781;48.34;62.988
1553638965;21.973;53.711;46.875;40.527;59.082
1553638965;15.137;49.805;51.27;53.711;48.828
1553638965;32.715;50.781;52.246;27.832;43.945
1553638965;50.781;53.711;47.852;28.809;42.48
1553638965;57.129;53.223;49.316;62.012;42.969
1553638965;52.734;50.293;51.758;66.895;45.41
1553638965;40.527;53.223;50.293;46.875;49.805
1553638965;56.152;58.594;47.852;22.461;41.992
1553638965;64.941;62.012;47.363;30.273;34.668
1553638965;36.133;62.5;42.48;43.945;35.156
1553638965;28.32;57.617;40.527;40.527;30.762
1553638965;27.832;52.734;49.805;25.879;28.809
1553638965;5.859;50.781;50.781;5.859;28.809
1553638965;7.324;50.781;45.41;19.531;32.715
1553638965;14.648;52.246;45.41;33.691;35.645
1553638965;41.504;59.57;48.34;22.461;32.227
1553638965;57.617;62.988;47.852;23.438;36.133
1553638965;48.34;53.711;46.387;25.391;32.715
1553638965;37.109;46.387;46.387;7.324;27.832
1553638965;7.812;41.992;48.34;29.297;15.625
1553638965;26.855;42.48;44.922;43.457;3.906
1553638965;43.945;52.246;42.969;16.602;11.719
1553638965;41.016;49.316;46.387;3.906;11.23
1553638965;30.273;47.852;44.922;7.324;2.93
1553638965;11.719;47.852;47.363;8.789;2.441
1553638965;13.672;29.785;47.363;22.461;4.883
1553638965;0.488;32.715;43.945;23.926;0
1553638965;1.465;56.152;40.527;1.953;-4.395
1553638965;19.531;61.523;40.527;4.883;11.719
1553638965;38.574;61.035;40.527;15.137;20.996
1553638965;32.227;57.129;37.598;14.648;7.324
1553638965;8.789;48.34;36.621;25.391;15.625
1553638965;13.184;51.758;40.527;9.277;21.973
1553638965;41.504;56.152;43.945;-10.742;11.719
1553638965;55.664;49.316;45.41;24.414;11.719
1553638965;38.574;48.34;53.223;50.781;18.066
1553638965;13.672;53.223;53.711;45.41;17.578
1553638965;36.621;53.711;41.504;32.227;14.16
1553638965;41.504;52.734;35.645;19.043;3.906
1553638965;14.648;44.922;41.992;10.742;16.113
1553638965;21.484;43.945;43.457;5.371;21.484
1553638965;6.348;51.758;43.945;17.09;15.137
1553638965;32.227;52.734;43.945;46.387;17.09
1553638965;63.477;46.387;41.504;52.246;20.508
1553638965;29.297;44.434;43.457;31.25;25.391
1553638965;16.602;45.41;44.434;20.996;21.484
1553638965;17.578;47.852;51.27;11.23;30.273
1553638965;2.441;53.711;51.758;1.465;28.32
1553638965;6.836;59.082;51.758;14.648;25.391
1553638965;17.578;64.453;58.594;11.23;37.598
1553638965;24.902;65.918;55.176;9.277;33.203
1553638965;40.039;66.895;53.223;2.441;30.762
1553638965;54.199;68.359;50.781;15.137;54.688
1553638965;58.594;68.848;50.781;58.594;66.895
1553638965;47.852;60.059;65.43;69.336;42.969
1553638965;26.855;52.246;75.684;61.523;24.902
1553638965;44.434;46.387;75.195;50.293;21.973
1553638965;28.32;36.133;69.336;17.09;19.043
1553638965;5.859;28.809;67.383;26.367;15.625
1553638965;33.203;20.996;74.219;11.23;3.906
1553638965;-1.953;8.789;78.125;-20.02;-3.418
1553638965;-36.133;0;75.684;-4.395;-1.465
1553638965;-37.109;-8.789;76.66;-0.488;2.93
1553638965;-38.086;-16.113;81.543;6.348;-8.301
1553638965;-20.508;-18.555;82.52;19.043;-19.043
1553638965;-39.551;-23.438;83.984;17.09;-10.254
1553638965;-65.43;-26.855;81.543;-11.719;-19.043
1553638965;-44.922;-32.715;78.613;-16.113;-19.043
1553638965;-31.25;-32.715;79.102;1.953;-9.766
1553638965;-4.883;-22.461;80.078;-4.395;-11.23
1553638965;-3.418;-13.184;74.219;1.465;-9.277
1553638965;-15.137;-17.09;73.73;14.16;-11.23
1553638965;-15.137;-18.555;76.172;20.508;-10.254
1553638965;-41.992;-7.812;74.219;41.016;-10.254
1553638965;-32.715;-1.465;77.148;26.855;0.977
1553638965;-25.879;11.719;73.73;-17.578;3.418
1553638965;-18.555;13.672;70.801;-24.902;5.371
1553638965;4.883;11.719;72.754;-10.742;14.16
1553638965;9.766;14.16;72.754;6.348;9.277
1553638965;8.789;15.625;70.312;15.625;6.348
1553638965;-6.836;16.602;71.289;14.16;6.348
1553638965;-16.113;17.578;75.195;22.461;16.602
1553638965;7.812;22.949;79.102;61.035;35.156
1553638965;34.18;33.691;75.684;57.617;42.969
1553638965;16.602;34.18;67.383;12.695;20.508
1553638965;-1.953;31.25;69.824;20.02;13.672
1553638965;9.277;32.715;73.73;25.879;35.645
1553638965;18.555;34.668;63.965;8.301;23.438
1553638965;-10.742;34.668;65.43;34.18;20.996
1553638965;-21.484;31.738;78.125;59.082;33.691
1553638965;23.438;40.527;68.848;17.09;39.551
1553638965;30.762;47.363;65.918;10.742;46.875
1553638965;3.906;40.527;69.824;23.438;31.738
1553638965;20.996;45.41;72.266;22.461;32.227
1553638965;44.434;55.664;71.777;28.809;40.527
1553638965;28.32;48.828;71.289;16.113;31.738
1553638965;8.301;50.293;75.684;20.02;22.949
1553638965;24.902;52.246;75.684;19.531;16.113
1553638965;25.391;48.34;74.219;29.785;19.531
1553638965;4.883;57.129;75.195;41.992;22.461
1553638965;18.066;57.617;76.172;38.086;25.391
1553638965;2.93;47.363;72.266;14.16;15.625
1553638965;-25.879;45.41;69.824;-11.719;2.93
1553638965;-8.789;53.223;69.824;11.719;6.836
1553638965;24.902;59.082;73.242;32.227;18.066
1553638965;35.156;63.477;73.242;14.648;11.23
1553638965;17.09;59.082;72.266;5.859;-2.441
1553638965;10.254;47.363;80.078;-4.883;7.324
1553638965;-2.93;51.758;79.102;-19.531;15.137
1553638965;1.953;59.082;63.965;-12.695;14.648
1553638965;18.066;57.129;61.523;2.93;20.508
1553638965;17.09;56.641;67.383;5.371;26.855
1553638965;23.438;58.594;68.848;17.09;37.598
1553638965;16.113;61.523;68.848;46.875;33.203
1553638965;3.906;58.594;66.895;39.551;9.766
1553638965;29.785;56.641;66.406;30.273;2.441
1553638965;21.484;59.57;67.383;58.105;4.395
1553638965;14.16;56.152;71.777;53.711;13.184
1553638965;9.277;57.617;71.777;8.789;15.137
1553638965;5.371;62.5;67.383;-24.414;19.043
1553638965;17.578;63.965;64.453;-21.484;18.555
1553638965;-8.301;62.012;63.965;-4.395;12.207
1553638965;-17.578;58.594;62.988;3.418;10.742
1553638965;34.668;57.129;61.035;1.465;10.254
1553638965;36.621;58.105;63.965;10.742;21.973
1553638965;-12.207;61.035;57.617;20.02;34.668
1553638965;-4.395;59.57;55.664;24.414;32.227
1553638965;11.719;58.594;62.988;9.766;21.973
1553638965;3.906;58.594;69.824;11.23;23.438
1553638965;-3.418;57.129;76.172;31.738;27.832
1553638965;11.23;60.547;75.195;38.574;15.625
1553638965;10.254;62.5;70.801;41.992;10.742
1553638965;8.301;58.594;68.848;39.062;12.207
1553638965;17.09;61.523;66.406;36.621;8.789
1553638965;11.719;62.012;67.871;17.09;7.812
1553638965;12.207;62.012;69.336;10.254;9.277
1553638965;29.297;60.059;69.824;25.391;11.23
1553638965;28.809;58.105;67.383;26.367;6.348
1553638965;2.441;58.105;63.965;12.695;16.602
1553638965;-6.348;55.176;68.359;11.719;26.855
1553638965;2.441;54.688;68.848;12.695;16.602
1553638965;20.996;59.57;64.941;14.16;3.906
1553638965;45.41;62.012;70.312;22.949;7.324
1553638965;62.012;62.988;71.777;19.531;21.484
1553638965;38.574;65.43;62.5;2.441;23.926
1553638965;2.441;65.43;66.895;8.789;23.438
1553638965;-16.113;59.082;77.148;7.812;22.949
1553638965;-1.465;55.664;76.66;-7.812;10.742
1553638965;16.602;68.848;72.754;4.395;5.859
1553638965;27.344;70.312;67.871;26.367;16.602
1553638965;41.504;66.406;71.289;9.766;23.438
1553638965;9.766;66.406;72.754;17.09;21.973
1553638965;15.137;64.941;67.871;35.156;20.508
1553638965;15.625;68.359;62.5;16.602;20.02
1553638965;4.883;65.43;68.359;14.16;17.09
1553638965;12.695;58.594;72.266;25.391;20.02
1553638965;26.855;63.965;70.312;28.32;11.23
1553638965;29.785;62.012;69.336;20.508;6.836
1553638965;31.738;55.664;69.336;12.207;14.16
1553638965;20.508;65.43;70.312;4.395;18.555
1553638965;5.859;67.383;63.965;1.953;13.672
1553638965;11.719;59.57;66.406;17.578;12.695
1553638965;17.09;59.57;75.684;13.672;20.02
1553638965;17.578;67.383;72.266;11.719;32.227
1553638965;30.762;67.871;70.801;0.488;31.738
1553638965;27.832;64.453;72.754;-2.441;25.391
1553638965;-6.348;59.57;72.754;7.324;24.902
1553638965;-6.348;59.57;75.195;-2.93;26.855
1553638965;13.672;60.547;71.777;7.812;39.062
1553638965;23.926;58.105;69.336;36.621;39.062
1553638965;22.949;64.453;73.242;48.828;33.203
1553638965;25.391;69.336;74.219;18.555;27.344
1553638965;37.109;72.266;72.266;16.113;32.227
1553638965;60.059;74.707;74.219;32.227;33.691
1553638965;33.691;71.777;80.566;23.438;35.645
1553638965;30.762;70.312;79.102;44.434;40.039
1553638965;42.969;66.895;70.312;46.387;34.18
1553638965;6.836;64.453;63.965;26.367;29.785
1553638965;14.648;62.988;62.988;28.32;27.832
1553638965;36.621;62.5;68.359;43.945;39.062
1553638965;32.227;66.406;70.312;34.18;44.434
1553638965;31.25;64.453;68.848;9.277;29.785
1553638965;14.648;62.012;69.824;-10.254;25.879
1553638965;17.578;64.453;69.824;18.555;33.203
1553638965;18.066;62.5;73.73;22.461;29.785
1553638965;4.395;66.406;73.242;1.465;27.344
1553638965;16.602;72.754;72.266;5.371;35.645
1553638965;24.902;67.871;72.266;7.324;25.879
1553638965;29.785;59.57;68.848;15.625;17.578
1553638965;34.18;51.27;70.312;21.484;16.602
1553638965;24.414;54.199;73.242;20.508;2.93
1553638965;4.395;56.152;73.242;7.324;-2.93
1553638965;26.367;50.293;72.266;14.16;0.488
1553638965;29.785;56.641;76.66;32.715;6.348
1553638965;-11.719;65.918;83.496;25.879;4.883
1553638965;-7.324;62.988;84.473;16.602;6.348
1553638965;15.137;62.012;83.008;34.18;13.672
1553638965;-3.418;66.895;81.543;12.695;18.555
1553638965;0.488;61.035;84.961;4.395;40.527
1553638965;22.461;64.941;78.613;27.344;45.41
1553638965;7.324;74.219;70.312;7.324;13.184
1553638965;17.09;79.59;71.777;-9.277;-3.906
1553638965;23.926;89.355;69.824;5.371;-4.883
1553638965;-32.715;99.121;70.801;-29.297;-26.367
1553638965;-54.199;110.84;73.242;-65.43;-37.598
1553638965;-35.645;123.047;69.336;-46.875;-32.715
1553638965;-30.273;136.23;63.965;-67.383;-40.039
1553638965;-20.02;147.949;64.453;-84.473;-57.617
1553638965;-21.973;151.855;61.523;-78.125;-62.012
1553638965;-57.617;149.902;54.688;-87.402;-63.477
1553638965;-69.336;155.762;49.805;-96.68;-68.359
1553638966;-64.941;161.621;47.852;-85.938;-66.895
1553638966;-44.922;162.109;50.781;-83.984;-52.246
1553638966;-15.137;161.621;49.316;-82.52;-41.992
1553638966;-12.207;164.551;39.551;-75.684;-49.805
1553638966;-3.418;163.086;40.039;-76.66;-34.668
1553638966;7.324;160.645;37.598;-66.406;-15.137
1553638966;19.531;158.691;38.086;-28.32;-10.742
1553638966;31.25;143.555;44.922;-12.695;-8.789
1553638966;9.277;134.766;43.945;-39.551;-11.23
1553638966;15.137;132.324;38.574;-42.969;-7.812
1553638966;42.969;120.605;38.086;-20.996;5.371
1553638966;59.57;116.699;41.992;-8.301;8.789
1553638966;59.57;121.582;48.828;8.301;13.672
1553638966;35.156;114.258;50.293;26.367;16.602
1553638966;22.949;106.934;51.27;25.879;15.137
1553638966;25.879;108.398;49.805;7.812;26.367
1553638966;32.227;112.305;46.875;-0.488;40.527
1553638966;34.668;107.422;47.852;20.508;44.922
1553638966;24.902;100.098;43.945;15.625;31.738
1553638966;38.574;95.215;39.062;-8.301;33.203
1553638966;59.57;94.727;44.922;-0.488;51.27
1553638966;72.266;78.125;49.805;0.488;59.57
1553638966;77.637;70.312;48.828;0.488;55.176
1553638966;58.105;79.102;48.828;25.879;52.246
1553638966;47.852;82.52;49.316;48.34;45.41
1553638966;65.43;85.449;54.688;48.828;46.387
1553638966;59.082;80.566;57.129;38.574;49.316
1553638966;41.992;81.543;56.152;25.879;48.828
1553638966;65.43;87.402;59.57;32.715;48.828
1553638966;72.754;90.82;58.105;36.621;57.617
1553638966;53.223;78.125;59.082;30.762;60.547
1553638966;31.25;67.871;59.57;40.039;54.199
1553638966;22.461;69.336;58.105;45.41;55.176
1553638966;43.457;67.383;62.5;38.574;62.5
1553638966;60.059;63.965;64.941;47.363;62.012
1553638966;74.707;68.359;65.918;64.453;59.57
1553638966;77.637;73.242;64.941;62.012;55.664
1553638966;36.133;70.801;60.547;55.176;47.852
1553638966;33.691;66.406;60.547;53.223;52.734
1553638966;37.109;62.012;62.5;47.852;55.176
1553638966;33.691;57.129;56.152;32.227;52.734
1553638966;46.875;56.152;49.805;24.414;47.363
1553638966;31.738;61.035;48.34;19.043;45.898
1553638966;33.691;64.453;51.27;25.879;45.898
1553638966;54.688;61.035;56.152;44.922;31.738
1553638966;50.293;58.105;59.57;60.059;39.062
1553638966;67.871;60.059;55.664;79.59;56.641
1553638966;83.984;60.547;50.293;76.172;44.922
1553638966;71.289;53.223;52.734;59.082;32.715
1553638966;30.273;46.875;54.199;27.832;39.062
1553638966;-15.137;53.223;62.012;27.832;49.805
1553638966;18.066;62.988;66.406;36.133;48.34
1553638966;59.57;66.406;60.059;35.645;44.434
1553638966;56.641;61.523;62.988;69.336;51.758
1553638966;30.273;56.641;51.758;31.738;32.227
1553638966;28.809;53.711;45.898;-1.465;15.137
1553638966;34.18;45.898;52.734;4.395;15.137
1553638966;38.086;49.316;49.316;28.809;32.227
1553638966;37.109;53.711;46.875;34.18;30.273
1553638966;27.832;39.551;47.852;27.832;16.113
1553638966;17.578;33.691;50.293;50.781;20.996
1553638966;24.414;38.086;50.781;39.062;34.668
1553638966;22.461;39.062;43.457;25.879;37.598
1553638966;31.25;42.969;43.457;17.578;28.809
1553638966;34.18;53.711;46.387;12.695;16.113
1553638966;29.785;63.477;40.527;13.184;15.625
1553638966;40.527;62.5;39.551;-1.953;20.996
1553638966;54.688;60.547;43.457;27.344;37.598
1553638966;49.805;58.105;45.898;42.969;38.086
1553638966;19.043;49.316;50.781;25.879;17.578
1553638966;6.348;45.41;56.152;16.602;16.113
1553638966;17.578;52.734;56.641;27.832;19.531
1553638966;33.203;55.176;52.246;42.48;26.367
1553638966;42.48;53.223;47.852;22.949;22.461
1553638966;34.668;51.758;53.223;3.906;20.508
1553638966;35.645;47.363;52.734;21.484;26.855
1553638966;37.109;45.898;55.176;35.645;32.715
1553638966;32.715;48.828;53.711;13.672;22.461
1553638966;42.969;49.805;44.922;20.02;15.625
1553638966;17.09;45.41;42.48;46.875;20.996
1553638966;8.789;45.898;43.457;24.902;23.438
1553638966;27.344;46.875;45.898;10.742;27.344
1553638966;18.555;43.457;43.457;20.508;21.484
1553638966;21.484;41.992;40.527;34.668;20.02
1553638966;13.184;38.574;46.875;51.758;33.203
1553638966;29.785;41.992;53.711;32.227;41.016
1553638966;35.645;51.758;50.781;11.23;39.062
1553638966;30.762;46.875;46.875;11.719;26.855
1553638966;24.902;40.039;51.758;-0.977;16.113
1553638966;16.113;45.898;58.105;37.598;28.32
1553638966;4.883;52.734;52.246;44.434;27.344
1553638966;4.395;53.711;48.828;14.16;19.531
1553638966;10.254;56.641;57.129;14.16;33.691
1553638966;32.227;60.547;57.617;10.254;36.133
1553638966;45.898;64.941;55.176;22.461;30.762
1553638966;10.254;60.547;50.781;10.742;14.648
1553638966;-28.32;50.293;46.387;-19.043;-12.695
1553638966;-36.133;60.059;49.805;-27.832;-17.578
1553638966;-32.227;64.941;45.898;-11.719;-13.672
1553638966;-40.039;71.289;45.898;-18.555;-5.859
1553638966;-30.762;86.426;52.246;-21.973;-13.184
1553638966;-24.414;91.797;55.664;-33.203;-39.551
1553638966;-35.645;90.82;62.988;-55.664;-41.992
1553638966;-49.316;83.984;66.406;-60.059;-46.387
1553638966;-52.246;88.379;65.43;-89.844;-72.266
1553638966;-61.523;93.262;66.895;-93.75;-87.402
1553638966;-91.797;97.168;74.219;-80.566;-84.473
1553638966;-131.836;104.004;73.73;-112.793;-91.797
1553638966;-127.441;108.398;72.754;-114.746;-110.84
1553638966;-95.703;108.398;86.426;-87.891;-122.07
1553638966;-114.258;105.469;93.262;-119.629;-125
1553638966;-139.648;103.027;90.82;-146.484;-116.211
1553638966;-124.023;95.703;85.449;-129.883;-101.074
1553638966;-112.305;90.332;83.984;-109.863;-108.887
1553638966;-132.812;86.426;86.914;-124.023;-120.117
1553638966;-131.348;78.613;84.961;-136.23;-114.746
1553638966;-125.488;71.777;81.543;-102.539;-107.422
1553638966;-115.234;63.477;75.195;-79.59;-79.59
1553638966;-88.379;52.246;71.289;-70.312;-66.406
1553638966;-88.867;35.645;72.754;-60.547;-54.199
1553638966;-57.129;22.461;68.848;-41.016;-25.879
1553638966;-11.719;15.625;68.359;0.977;-1.465
1553638966;8.789;6.836;67.383;16.602;14.648
1553638966;19.043;-1.465;63.477;19.531;26.855
1553638966;26.855;-6.348;63.477;35.645;32.227
1553638966;18.066;-4.395;51.758;23.438;37.109
1553638966;35.156;0.488;46.875;34.668;48.828
1553638966;52.246;0.488;47.363;77.637;65.918
1553638966;69.336;-1.953;42.48;83.008;78.125
1553638966;93.262;-4.883;36.133;87.891;84.473
1553638966;106.934;-3.906;32.227;125.977;92.285
1553638966;113.77;-3.906;35.156;124.512;95.215
1553638966;99.121;-5.371;35.645;103.516;107.422
1553638966;95.215;-2.441;35.645;89.355;115.723
1553638966;92.773;-0.977;33.203;88.867;102.051
1553638966;89.355;-3.906;31.25;99.609;89.844
1553638966;79.102;-4.883;31.738;100.098;101.074
1553638966;99.121;-8.301;33.203;103.516;104.004
1553638966;109.375;-3.906;36.133;96.68;100.586
1553638966;101.074;0.488;33.691;88.867;106.445
1553638966;102.051;-1.465;26.855;100.098;118.164
1553638966;106.934;3.418;23.926;117.188;127.441
1553638966;130.371;4.883;26.367;133.789;122.559
1553638966;115.234;-0.488;29.297;115.234;112.305
1553638966;95.215;9.277;34.668;99.609;114.746
1553638966;98.633;18.555;35.156;96.191;121.582
1553638966;113.281;14.16;31.738;82.52;114.258
1553638966;128.906;12.207;35.156;83.984;109.863
1553638966;104.004;6.836;35.645;98.145;104.492
1553638966;106.445;6.836;30.273;107.422;106.934
1553638966;95.215;11.23;29.785;87.402;120.605
1553638966;84.473;17.09;26.855;85.938;116.699
1553638966;95.703;20.996;27.344;111.328;103.027
1553638966;106.934;18.555;29.785;107.422;96.68
1553638966;135.742;15.625;29.785;96.191;91.797
1553638966;83.496;10.254;32.715;93.75;87.891
1553638966;52.734;13.184;34.668;90.332;85.938
1553638966;73.73;19.531;30.273;80.078;97.656
1553638966;105.469;26.367;28.32;86.426;98.145
1553638966;105.469;25.391;33.691;100.586;91.309
1553638966;59.082;17.09;34.18;101.562;94.727
1553638966;55.664;15.625;36.621;93.75;78.613
1553638966;56.641;16.113;35.156;75.684;71.777
1553638966;83.984;21.973;32.227;61.035;76.66
1553638966;116.699;21.484;33.691;92.773;70.312
1553638966;104.98;14.16;35.645;92.773;69.824
1553638966;62.5;18.555;38.574;64.453;69.336
1553638966;46.387;20.996;40.039;39.062;70.801
1553638966;75.684;21.484;31.738;35.156;67.871
1553638966;32.227;26.855;36.133;55.176;67.871
1553638966;55.664;26.855;43.945;50.781;70.312
1553638966;79.102;21.484;41.016;60.059;65.918
1553638966;49.805;19.043;42.969;72.266;59.57
1553638966;74.219;18.066;40.527;52.246;55.664
1553638966;62.5;14.648;38.086;41.504;54.688
1553638966;33.203;19.531;36.621;51.27;57.129
1553638966;61.035;16.602;42.48;61.035;58.594
1553638966;96.68;6.348;48.34;46.875;65.43
1553638966;52.246;14.648;34.18;18.555;51.27
1553638966;60.059;28.32;32.227;24.414;33.691
1553638966;81.055;22.461;43.945;59.082;35.156
1553638966;40.039;18.555;53.223;79.102;41.992
1553638966;32.227;25.391;49.316;63.965;44.434
1553638966;39.062;16.113;41.992;52.246;46.387
1553638966;45.41;14.648;40.039;52.734;49.316
1553638966;25.879;20.508;40.039;42.48;61.035
1553638966;20.508;16.602;38.086;16.602;58.105
1553638966;19.043;13.672;45.41;19.043;50.781
1553638966;47.363;15.625;46.875;25.391;47.852
1553638966;54.688;11.23;42.969;47.363;42.48
1553638966;44.434;8.789;48.34;76.172;49.805
1553638966;29.785;11.23;43.457;64.941;41.504
1553638966;46.875;11.23;45.41;52.734;31.25
1553638966;58.105;12.207;46.387;46.387;47.363
1553638966;41.504;11.719;39.551;31.738;52.246
1553638966;76.66;20.996;40.039;22.461;49.316
1553638966;54.688;29.297;41.992;25.879;44.434
1553638966;45.41;10.254;52.734;61.523;34.668
1553638966;57.617;-4.395;55.176;88.379;35.645
1553638966;25.879;-0.488;49.805;27.344;33.691
1553638966;24.414;0.977;49.805;38.574;36.621
1553638966;33.203;2.93;49.316;56.152;27.344
1553638966;25.879;8.789;40.527;8.789;10.742
1553638966;5.859;11.23;40.527;24.414;1.953
1553638966;35.156;18.066;39.551;25.879;12.207
1553638966;62.988;26.855;37.598;16.602;23.926
1553638966;32.715;26.367;41.992;20.508;32.227
1553638966;38.086;27.344;43.945;29.785;51.27
1553638966;42.48;21.484;48.34;43.945;48.34
1553638966;15.137;26.855;42.48;42.969;33.203
1553638966;49.805;32.227;41.504;39.062;34.18
1553638966;76.172;27.832;44.434;39.062;38.086
1553638966;50.781;39.062;42.48;25.879;34.668
1553638966;32.715;37.598;40.039;15.137;38.574
1553638966;19.531;31.738;36.621;1.465;38.086
1553638966;42.48;36.621;39.551;14.16;23.438
1553638966;50.293;33.691;40.527;25.391;30.762
1553638966;42.48;37.598;39.062;34.668;50.781
1553638966;50.293;44.922;41.504;44.434;55.176
1553638966;52.246;44.922;43.945;16.113;51.27
1553638966;43.945;48.34;42.48;-0.977;57.617
1553638966;62.012;49.805;41.992;20.508;61.523
1553638966;71.289;47.852;41.504;73.73;58.105
1553638966;95.703;41.992;39.062;89.844;56.152
1553638966;73.73;35.645;39.551;41.504;53.711
1553638966;39.062;39.062;40.039;6.836;54.199
1553638966;63.965;40.527;41.016;16.113;47.852
1553638966;43.457;32.227;47.363;36.133;44.434
1553638966;30.762;31.25;45.41;34.668;51.27
1553638966;67.383;36.133;39.062;33.203;47.363
1553638966;71.289;40.527;41.016;61.035;46.875
1553638966;40.039;44.922;44.434;71.777;45.41
1553638966;44.434;42.48;41.992;41.016;37.598
1553638966;44.922;38.574;41.016;2.93;29.785
1553638966;27.344;34.18;43.945;10.742;35.156
1553638966;31.25;30.273;43.457;37.598;65.43
1553638966;46.875;35.156;38.086;41.016;76.172
1553638966;54.199;47.852;37.109;39.551;45.41
1553638966;41.992;54.688;40.039;42.969;25.391
1553638966;67.871;59.57;37.598;39.551;20.996
1553638966;101.562;72.266;38.574;39.551;22.461
1553638966;72.266;83.984;34.668;31.25;14.16
1553638966;39.062;87.402;32.715;20.996;16.602
1553638966;21.484;85.449;35.645;25.391;32.227
1553638966;11.719;91.797;33.691;32.715;26.367
1553638966;19.531;99.121;29.297;30.762;20.996
1553638966;43.945;99.609;21.973;17.09;29.297
1553638966;60.547;100.586;20.02;-2.441;41.016
1553638966;53.711;99.609;18.066;2.441;45.41
1553638966;59.082;100.098;21.484;3.418;46.387
1553638966;62.5;98.145;25.879;9.766;40.527
1553638966;65.918;92.285;24.414;35.156;42.969
1553638966;56.152;86.426;23.926;24.902;38.574
1553638966;43.457;83.008;24.902;34.668;28.809
1553638966;62.012;82.031;28.32;35.645;28.32
1553638966;50.781;83.496;33.203;26.855;37.109
1553638967;25.879;74.707;37.598;35.645;38.086
1553638967;54.199;70.801;39.551;40.039;39.551
1553638967;79.59;74.219;39.062;46.387;44.922
1553638967;69.824;79.59;33.691;29.297;58.105
1553638967;56.641;72.266;29.297;5.859;55.664
1553638967;81.543;63.477;32.715;26.855;41.992
1553638967;55.664;62.5;34.18;24.414;50.293
1553638967;-2.93;57.617;28.809;37.598;35.645
1553638967;22.949;53.711;29.297;30.762;35.156
1553638967;61.523;63.477;29.297;2.441;53.711
1553638967;68.359;75.684;29.297;33.203;48.828
1553638967;52.246;72.266;28.32;28.32;39.551
1553638967;38.574;62.012;27.832;2.441;22.949
1553638967;12.695;53.711;34.18;3.906;20.996
1553638967;15.137;53.223;34.668;17.09;33.203
1553638967;22.461;52.734;32.715;16.113;41.504
1553638967;24.902;50.293;32.227;7.324;51.758
1553638967;39.062;47.852;30.273;10.254;53.711
1553638967;29.297;43.945;28.32;15.137;45.898
1553638967;51.758;47.363;32.227;33.691;45.898
1553638967;71.289;52.246;33.691;40.039;49.805
1553638967;47.363;47.363;37.109;36.133;62.5
1553638967;16.113;50.293;39.551;32.715;63.477
1553638967;12.695;43.457;40.039;32.715;48.34
1553638967;14.16;36.621;37.598;1.465;45.898
1553638967;8.789;41.992;33.691;-10.742;41.504
1553638967;25.879;34.668;25.391;-4.395;30.273
1553638967;35.156;30.273;18.066;11.719;29.297
1553638967;38.574;27.344;20.508;31.25;34.668
1553638967;33.691;27.344;24.902;15.137;41.504
1553638967;-1.465;26.367;25.391;8.789;45.41
1553638967;-5.859;27.832;23.438;28.32;50.293
1553638967;-30.273;28.809;32.227;33.691;53.223
1553638967;-4.395;27.344;37.109;24.902;38.086
1553638967;31.25;29.297;31.25;57.129;26.855
1553638967;8.789;30.762;25.879;62.012;32.227
1553638967;-1.465;31.738;31.25;59.57;41.992
1553638967;4.395;37.109;27.832;69.336;76.66
1553638967;46.875;45.898;25.391;55.664;99.121
1553638967;14.648;44.434;38.086;55.176;59.57
1553638967;-3.906;44.434;34.668;29.297;12.207
1553638967;4.395;41.992;25.879;-12.695;-19.531
1553638967;-116.211;22.949;29.785;-8.789;-21.484
1553638967;-103.027;17.09;31.25;-32.715;-8.789
1553638967;-36.621;28.809;26.367;-58.594;-32.715
1553638967;-50.781;27.832;19.531;-24.902;-52.246
1553638967;-83.008;13.184;19.531;-7.324;-49.805
1553638967;-80.566;10.742;32.227;-8.301;-35.645
1553638967;-28.32;23.926;26.367;-40.039;-40.527
1553638967;-51.27;20.02;18.066;-59.082;-38.574
1553638967;-82.52;12.207;25.391;-43.457;-33.691
1553638967;-69.336;9.277;25.879;-29.297;-57.129
1553638967;-68.848;10.742;20.02;-36.621;-53.223
1553638967;-31.25;11.719;15.625;-25.391;-28.809
1553638967;-29.785;10.742;28.809;11.719;-17.578
1553638967;-5.859;17.09;35.645;36.133;5.859
1553638967;10.742;21.484;33.203;31.25;14.16
1553638967;23.438;21.484;31.738;-6.348;6.836
1553638967;48.34;19.043;33.203;5.859;13.184
1553638967;69.824;20.996;37.109;39.551;8.301
1553638967;106.445;27.832;33.203;86.426;-5.859
1553638967;83.496;22.949;35.156;82.52;3.906
1553638967;15.625;20.02;32.227;-14.16;14.16
1553638967;-23.438;14.16;27.344;-39.062;15.625
1553638967;-33.691;12.207;32.227;-36.133;19.043
1553638967;-14.16;22.949;27.832;-28.809;34.668
1553638967;24.414;24.414;25.879;8.789;47.852
1553638967;31.738;21.484;39.551;29.785;41.504
1553638967;28.32;17.09;42.969;5.859;28.809
1553638967;35.645;15.137;34.18;-9.766;17.578
1553638967;88.867;27.832;25.879;8.301;18.555
1553638967;123.047;34.668;30.273;35.156;13.184
1553638967;104.492;33.691;36.133;44.434;13.184
1553638967;8.789;19.043;44.434;19.531;42.48
1553638967;-14.648;17.578;53.711;15.137;62.988
1553638967;72.266;31.25;41.016;32.227;62.012
1553638967;82.031;22.949;41.992;6.836;48.828
1553638967;61.035;20.508;45.898;-9.766;18.555
1553638967;91.797;25.391;22.949;38.086;18.555
1553638967;24.902;10.742;26.855;46.875;30.762
1553638967;-15.625;5.371;40.527;24.414;28.809
1553638967;86.914;21.973;41.016;-44.922;20.02
1553638967;69.336;19.043;45.898;-2.93;40.527
1553638967;-26.855;11.23;38.086;38.574;36.133
1553638967;18.555;14.648;27.832;12.207;35.156
1553638967;128.418;21.973;41.504;25.391;41.016
1553638967;75.684;9.766;38.574;0.977;24.414
1553638967;-31.738;-6.836;49.805;-15.625;42.969
1553638967;36.133;9.277;33.203;29.785;60.547
1553638967;127.93;20.996;20.02;73.73;21.484
1553638967;81.543;24.414;40.527;19.043;-3.906
1553638967;14.16;11.23;52.734;-16.602;20.02
1553638967;65.43;11.719;45.898;-4.395;12.695
1553638967;76.172;31.25;-2.441;-2.93;47.363
1553638967;19.043;17.09;17.09;19.531;59.082
1553638967;46.387;23.926;15.625;30.273;25.391
1553638967;62.012;39.062;-5.859;13.184;36.621
1553638967;70.312;32.227;0;31.738;54.199
1553638967;89.355;23.438;18.066;96.191;42.969
1553638967;33.691;15.137;42.969;63.965;21.484
1553638967;9.277;18.066;30.273;-44.922;39.062
1553638967;55.176;23.438;18.555;13.184;42.969
1553638967;77.637;38.574;-3.906;135.742;46.387
1553638967;92.285;39.062;-1.465;89.844;47.363
1553638967;124.023;36.621;15.137;61.035;7.324
1553638967;104.492;26.855;7.812;42.969;3.418
1553638967;33.691;24.414;1.465;0.977;32.715
1553638967;54.688;31.738;7.812;55.176;22.949
1553638967;28.809;22.461;1.953;96.68;29.785
1553638967;41.016;33.203;4.883;92.285;39.551
1553638967;79.102;44.434;3.418;56.152;28.32
1553638967;48.828;33.691;-6.836;32.227;40.527
1553638967;103.027;33.691;4.395;51.758;43.457
1553638967;97.656;41.504;13.672;65.43;16.113
1553638967;45.41;31.738;30.273;0.977;28.32
1553638967;62.5;38.086;10.254;-8.301;48.34
1553638967;106.445;38.086;-2.93;97.656;41.504
1553638967;88.379;29.297;2.441;71.777;48.34
1553638967;0;42.969;17.578;-15.625;53.223
1553638967;-1.465;35.645;35.645;5.859;41.016
1553638967;85.449;44.434;-0.488;68.359;38.086
1553638967;103.516;42.48;4.883;58.105;33.203
1553638967;78.613;30.273;10.254;29.785;17.578
1553638967;67.871;38.574;15.625;25.391;18.555
1553638967;23.438;43.457;24.902;27.344;24.414
1553638967;32.715;44.434;-0.488;56.152;20.508
1553638967;29.785;32.227;10.742;74.707;36.133
1553638967;27.832;21.973;31.25;6.836;40.527
1553638967;93.262;48.828;-7.812;-6.348;60.059
1553638967;108.398;44.922;8.789;27.344;39.551
1553638967;76.172;24.414;32.715;23.438;16.113
1553638967;39.062;31.25;0.977;9.766;26.855
1553638967;13.184;25.879;17.09;-3.906;8.789
1553638967;37.109;24.414;14.648;26.855;10.742
1553638967;42.969;25.391;-6.348;27.832;20.508
1553638967;39.062;23.926;6.836;37.109;20.02
1553638967;48.34;15.137;10.254;8.789;22.949
1553638967;52.246;23.438;9.766;20.996;21.484
1553638967;47.363;48.34;2.441;46.387;11.719
1553638967;39.062;39.062;24.902;7.324;-0.488
1553638967;37.598;39.551;22.949;29.785;29.785
1553638967;72.266;42.969;15.625;25.879;61.523
1553638967;79.102;28.32;24.902;0.488;47.852
1553638967;85.449;32.715;6.348;51.27;36.621
1553638967;64.453;32.715;8.301;100.586;37.598
1553638967;42.969;25.391;16.113;64.453;56.641
1553638967;32.715;29.785;43.457;16.113;31.738
1553638967;26.855;41.016;38.086;-1.953;30.762
1553638967;94.727;46.387;11.719;56.641;63.477
1553638967;79.102;39.551;12.695;91.309;42.48
1553638967;46.387;35.645;13.184;88.379;28.809
1553638967;50.781;32.227;23.926;21.973;33.691
1553638967;94.238;34.18;17.09;17.09;37.598
1553638967;69.336;27.344;29.785;50.781;31.738
1553638967;24.414;17.09;43.457;31.25;36.133
1553638967;41.504;31.25;21.484;21.973;34.18
1553638967;99.609;44.922;-3.906;33.691;28.809
1553638967;82.031;42.48;18.066;64.453;32.715
1553638967;41.016;48.828;31.25;80.078;50.293
1553638967;112.305;49.805;18.066;108.398;59.082
1553638967;134.766;38.086;27.344;109.863;40.527
1553638967;74.219;41.992;29.297;65.918;38.086
1553638967;50.781;55.664;16.602;54.199;37.109
1553638967;-20.508;28.32;32.227;20.996;34.18
1553638967;-35.645;9.766;39.062;48.828;45.898
1553638967;94.238;35.645;16.602;88.867;42.969
1553638967;108.887;40.527;17.578;45.898;36.621
1553638967;53.711;39.062;25.879;28.809;26.367
1553638967;58.105;30.762;28.32;48.828;41.992
1553638967;65.43;35.645;25.391;31.738;56.641
1553638967;32.715;38.086;25.879;12.695;54.199
1553638967;31.738;33.691;30.762;15.137;72.266
1553638967;58.105;32.715;34.668;29.785;59.082
1553638967;89.844;32.715;23.926;77.637;35.156
1553638967;84.473;31.25;16.602;70.801;49.805
1553638967;-25.391;14.648;30.273;57.129;58.594
1553638967;-13.184;14.16;34.668;29.297;45.41
1553638967;94.238;42.969;23.926;26.367;21.484
1553638967;92.285;46.875;27.344;51.27;22.949
1553638967;78.125;51.27;27.832;30.273;20.508
1553638967;-4.395;45.898;20.508;3.906;28.32
1553638967;-7.812;24.902;30.762;-4.883;21.484
1553638967;63.477;34.668;25.879;37.109;20.508
1553638967;79.59;34.668;20.02;76.172;24.414
1553638967;73.73;29.297;18.555;4.395;27.344
1553638967;28.809;30.273;19.043;1.953;42.969
1553638967;47.363;23.438;22.461;53.711;40.039
1553638967;59.082;35.156;14.16;28.809;36.133
1553638967;-4.395;25.879;37.109;0;13.672
1553638967;59.57;14.648;41.504;-8.301;6.836
1553638967;139.16;44.434;7.324;-3.906;9.766
1553638967;75.195;30.762;14.648;11.719;0.488
1553638967;61.035;25.879;9.766;20.508;23.438
1553638967;43.945;35.156;11.23;51.758;21.484
1553638967;-21.973;15.137;38.574;70.312;29.785
1553638967;72.266;28.32;30.273;59.082;27.344
1553638967;95.703;43.945;8.789;22.949;15.137
1553638967;22.461;38.086;12.695;6.836;16.113
1553638967;3.906;31.25;15.625;-25.391;15.625
1553638967;18.555;29.785;20.02;-1.953;35.645
1553638967;59.57;39.062;19.043;53.223;25.391
1553638967;77.148;32.227;23.926;1.465;15.625
1553638967;6.348;9.277;48.828;-30.273;21.484
1553638967;54.688;23.438;29.297;18.066;22.461
1553638967;102.539;51.27;-7.812;87.891;20.02
1553638967;49.805;26.367;18.555;71.289;22.461
1553638967;12.207;13.672;29.297;-20.02;20.996
1553638967;19.531;20.508;12.207;-8.789;34.18
1553638967;77.148;28.809;12.695;48.828;33.203
1553638967;83.008;28.32;26.367;73.242;27.832
1553638967;96.68;30.762;16.113;70.312;26.367
1553638967;59.082;35.156;11.23;22.949;34.18
1553638967;27.344;30.762;26.367;40.039;50.781
1553638967;48.828;26.855;29.785;45.898;35.156
1553638967;51.27;28.809;32.715;12.695;22.461
1553638967;29.297;32.715;23.438;2.93;53.223
1553638967;51.758;32.227;25.391;4.883;42.969
1553638967;46.387;28.809;23.926;22.949;29.297
1553638967;24.414;21.484;8.301;50.781;49.805
1553638967;76.66;28.32;11.719;72.754;33.691
1553638967;76.66;25.879;39.551;46.875;22.949
1553638967;22.949;8.301;32.715;37.109;33.691
1553638967;66.406;17.578;14.648;53.711;35.645
1553638967;81.543;27.832;33.203;46.875;31.738
1553638967;39.062;18.555;30.273;45.41;30.273
1553638967;32.227;16.602;23.438;11.719;25.391
1553638967;-5.371;17.09;27.832;-24.902;40.527
1553638967;-7.812;13.672;35.645;12.695;53.711
1553638967;47.852;17.578;37.109;36.133;24.902
1553638967;28.809;9.766;32.227;40.527;25.879
1553638967;9.277;9.766;25.391;44.922;22.461
1553638967;55.664;15.137;28.809;54.688;11.719
1553638967;102.539;23.926;24.902;50.293;22.949
1553638967;60.059;18.555;30.273;37.109;27.344
1553638967;33.691;11.719;43.457;18.066;30.762
1553638967;67.871;11.23;24.414;9.766;15.137
1553638967;66.406;9.766;10.742;17.09;3.906
1553638967;35.645;13.184;18.066;-6.836;8.301
1553638967;-45.898;-3.418;25.879;14.16;24.902
1553638967;-77.637;-10.254;40.039;13.672;30.762
1553638967;0;16.113;52.734;-0.977;32.227
1553638967;35.645;25.391;46.387;10.742;16.602
1553638967;67.383;8.789;54.688;-6.348;-4.395
1553638967;61.523;-5.859;48.828;0.488;21.484
1553638967;-21.484;-6.836;8.301;33.203;43.945
1553638967;4.395;3.418;20.996;45.898;41.992
1553638967;131.836;29.297;32.227;42.969;39.062
1553638967;109.863;28.32;39.551;37.109;24.902
1553638967;23.438;15.625;25.879;2.93;33.691
1553638967;-5.859;5.371;11.23;44.922;29.297
1553638967;41.016;4.883;39.551;44.434;-12.207
1553638967;53.711;31.738;39.551;-3.906;-12.695
1553638967;-7.812;9.277;45.41;-21.973;20.508
1553638967;28.32;-2.441;23.438;-47.363;41.016
1553638967;89.355;20.996;16.602;12.207;26.855
1553638967;61.035;21.973;43.457;50.293;33.203
1553638968;13.184;20.02;20.02;46.875;53.711
1553638968;36.621;12.695;16.602;28.809;38.086
1553638968;50.293;19.531;26.855;11.719;24.414
1553638968;54.688;27.344;31.738;41.016;32.715
1553638968;48.828;23.438;41.992;83.496;39.551
1553638968;22.461;30.762;42.48;43.457;22.949
1553638968;67.871;46.387;25.879;-3.418;35.645
1553638968;77.637;33.203;37.598;25.391;60.547
1553638968;45.898;27.344;38.574;75.195;72.754
1553638968;39.062;44.434;30.273;57.617;54.199
1553638968;23.926;53.711;29.297;-10.254;35.156
1553638968;25.879;44.434;26.367;14.648;39.062
1553638968;44.434;27.832;29.785;63.965;40.527
1553638968;87.402;20.508;40.527;56.641;31.738
1553638968;76.172;29.785;39.062;65.918;23.926
1553638968;22.461;38.574;30.273;10.254;25.879
1553638968;52.246;45.898;20.996;-12.695;34.668
1553638968;37.598;39.062;19.531;35.645;33.203
1553638968;6.836;24.902;25.879;64.453;48.34
1553638968;10.742;19.043;23.926;38.574;41.016
1553638968;21.973;24.902;32.715;9.277;20.996
1553638968;37.598;42.969;28.32;17.09;43.457
1553638968;51.27;38.086;35.156;23.926;31.25
1553638968;47.363;36.133;47.852;43.945;33.691
1553638968;6.836;33.203;32.227;21.973;66.895
1553638968;0;39.062;37.598;12.695;47.852
1553638968;76.172;46.875;63.477;5.371;0.977
1553638968;44.434;41.504;40.039;42.48;15.625
1553638968;43.457;47.852;-0.977;60.547;39.551
1553638968;6.348;46.875;11.23;60.547;65.918
1553638968;38.086;61.035;27.832;86.914;71.777
1553638968;108.398;47.363;53.223;40.527;29.297
1553638968;73.242;32.227;55.664;9.277;20.996
1553638968;52.246;49.316;25.391;46.875;41.504
1553638968;-6.836;57.617;14.648;55.664;53.223
1553638968;32.227;51.27;27.832;9.277;41.016
1553638968;80.078;58.105;27.344;28.809;16.602
1553638968;44.434;54.199;32.227;60.059;34.668
1553638968;56.152;55.664;30.762;54.688;49.805
1553638968;61.035;70.312;27.832;51.758;36.133
1553638968;12.695;48.34;37.109;24.902;30.762
1553638968;22.949;54.688;35.156;22.949;37.598
1553638968;48.34;72.754;28.32;39.551;28.809
1553638968;40.527;59.57;29.297;11.719;32.715
1553638968;65.43;67.871;29.785;24.902;38.574
1553638968;76.172;76.66;27.344;57.129;54.199
1553638968;60.547;65.43;29.785;27.832;37.598
1553638968;27.344;55.176;27.344;3.418;16.602
1553638968;38.574;52.246;37.109;22.949;14.648
1553638968;55.664;56.641;40.527;25.879;16.602
1553638968;32.715;51.758;30.273;15.137;33.203
1553638968;22.949;54.199;29.785;2.441;33.691
1553638968;16.113;72.754;32.715;17.578;20.996
1553638968;35.645;78.125;37.109;33.691;22.461
1553638968;14.16;61.035;37.109;27.344;29.297
1553638968;24.414;64.941;26.367;15.137;20.996
1553638968;66.406;62.988;29.297;2.441;21.973
1553638968;35.156;51.758;44.434;2.93;31.25
1553638968;31.25;59.082;48.34;52.246;55.664
1553638968;76.172;71.289;36.133;48.34;66.406
1553638968;33.691;66.895;36.621;8.301;63.477
1553638968;8.789;60.059;48.828;-0.977;50.293
1553638968;49.316;64.453;42.48;12.207;38.086
1553638968;87.891;61.035;37.598;60.547;75.195
1553638968;68.848;57.617;48.828;76.66;82.52
1553638968;82.031;59.082;38.086;67.383;79.59
1553638968;141.113;67.871;29.297;83.984;71.777
1553638968;91.797;54.199;47.852;118.164;75.195
1553638968;64.941;37.109;55.664;89.355;105.957
1553638968;73.242;39.551;48.34;71.289;107.422
1553638968;117.188;61.523;36.133;119.629;115.723
1553638968;154.297;77.148;33.691;117.676;130.371
1553638968;141.602;62.988;38.574;85.449;126.465
1553638968;97.656;65.43;46.387;98.633;115.723
1553638968;85.938;62.012;42.969;97.656;110.84
1553638968;100.098;54.688;38.574;63.965;120.605
1553638968;67.383;61.523;44.922;60.059;133.301
1553638968;126.465;59.082;57.129;106.934;127.441
1553638968;141.113;62.5;54.688;93.75;103.516
1553638968;79.102;69.824;38.574;41.992;91.797
1553638968;62.5;73.242;33.203;51.758;91.797
1553638968;59.082;61.523;36.133;60.059;87.402
1553638968;129.883;56.152;41.992;77.637;79.102
1553638968;147.461;61.035;44.922;77.148;59.082
1553638968;49.805;73.242;40.039;26.367;43.945
1553638968;35.156;78.125;44.434;54.688;59.57
1553638968;97.656;83.984;42.969;111.816;83.008
1553638968;126.465;99.609;38.086;56.641;70.801
1553638968;62.988;74.707;41.016;25.391;60.059
1553638968;49.805;59.57;46.387;81.055;61.523
1553638968;77.637;66.895;43.457;74.707;46.875
1553638968;65.918;75.684;27.832;11.23;41.016
1553638968;69.824;76.172;37.598;27.344;54.199
1553638968;55.176;76.172;49.805;55.176;68.848
1553638968;57.129;73.242;37.109;54.688;75.195
1553638968;57.129;66.895;41.016;41.992;59.57
1553638968;48.34;77.637;39.062;48.828;55.176
1553638968;62.5;79.59;33.203;49.316;51.758
1553638968;48.828;60.059;44.922;58.594;41.016
1553638968;51.758;63.477;41.016;30.762;32.715
1553638968;46.875;73.242;31.738;4.395;23.438
1553638968;74.707;63.965;30.762;17.578;35.645
1553638968;75.684;64.453;37.109;38.574;47.852
1553638968;23.926;78.613;34.668;46.875;30.762
1553638968;24.902;62.988;36.621;21.484;21.973
1553638968;44.434;52.734;44.922;73.242;43.945
1553638968;51.758;66.406;39.062;89.355;47.852
1553638968;38.086;66.406;35.156;52.734;33.203
1553638968;38.086;60.547;30.762;21.973;31.25
1553638968;33.203;61.035;27.832;-19.531;41.016
1553638968;41.992;72.754;28.32;4.883;44.922
1553638968;36.133;71.777;27.344;15.625;41.992
1553638968;48.34;66.895;31.25;9.277;35.645
1553638968;29.297;84.473;37.598;42.969;32.715
1553638968;51.758;87.402;36.133;29.297;22.949
1553638968;62.5;67.383;36.621;18.066;14.16
1553638968;34.18;69.824;42.969;40.527;24.902
1553638968;38.574;73.242;38.086;-13.184;11.719
1553638968;0;66.406;27.344;-32.227;0.488
1553638968;18.555;60.059;30.273;-6.348;18.555
1553638968;50.781;65.918;30.273;40.039;32.227
1553638968;70.801;66.406;29.297;58.105;27.344
1553638968;53.223;46.387;32.227;-4.395;9.766
1553638968;7.324;53.711;26.855;-28.32;11.23
1553638968;11.719;51.758;23.438;-14.648;10.742
1553638968;2.93;57.617;25.391;8.789;1.953
1553638968;44.434;63.965;34.18;11.719;22.949
1553638968;7.324;48.34;42.48;17.578;25.391
1553638968;-3.906;48.34;39.551;12.695;25.879
1553638968;45.898;37.598;40.039;-10.254;23.926
1553638968;62.988;42.969;37.109;13.184;12.695
1553638968;72.754;59.082;30.762;-2.93;11.719
1553638968;41.016;37.598;39.062;10.742;12.695
1553638968;28.32;36.621;45.41;52.246;39.062
1553638968;40.527;54.688;37.598;10.254;50.781
1553638968;43.457;45.41;37.109;-33.691;36.133
1553638968;22.461;41.504;38.086;-26.367;20.02
1553638968;33.691;37.598;38.574;7.812;11.719
1553638968;41.504;37.109;49.805;24.902;14.16
1553638968;-10.254;38.086;51.27;6.836;4.883
1553638968;13.184;38.086;46.875;6.348;10.742
1553638968;50.781;39.551;47.852;27.344;42.48
1553638968;42.48;27.344;40.527;-2.441;37.109
1553638968;48.34;23.926;36.621;-26.367;16.113
1553638968;17.09;39.551;39.062;-25.391;19.043
1553638968;38.574;51.27;43.457;-3.906;47.363
1553638968;47.852;42.48;51.27;-1.465;51.27
1553638968;18.555;30.762;49.805;-25.391;28.809
1553638968;8.789;35.156;39.062;-31.25;28.809
1553638968;19.043;38.574;36.133;-20.02;35.645
1553638968;27.832;34.668;43.945;5.371;30.762
1553638968;6.348;31.738;47.852;31.738;43.945
1553638968;-1.953;38.086;37.109;-23.926;43.457
1553638968;18.555;56.641;30.762;-78.613;25.879
1553638968;58.105;53.223;36.133;-37.109;24.902
1553638968;38.574;37.109;33.203;-20.996;13.672
1553638968;-0.977;35.156;27.832;-13.672;18.066
1553638968;38.086;39.062;35.645;5.371;34.668
1553638968;41.504;35.156;44.922;4.883;30.273
1553638968;23.926;40.527;43.945;32.715;37.109
1553638968;29.297;50.781;37.109;61.523;45.41
1553638968;22.949;31.25;35.645;-4.883;18.066
1553638968;-10.254;26.855;27.832;-68.848;-4.883
1553638968;-9.277;37.598;23.926;-35.645;6.348
1553638968;-1.953;37.598;26.855;-14.648;19.043
1553638968;-14.648;32.715;21.484;-14.16;19.531
1553638968;10.742;27.344;21.484;6.836;27.832
1553638968;42.969;32.227;25.391;17.09;39.551
1553638968;43.945;41.504;24.902;23.926;35.645
1553638968;28.32;43.457;28.32;6.348;18.555
1553638968;-34.18;36.621;27.344;-6.836;-4.883
1553638968;-72.754;22.461;26.367;13.672;-0.977
1553638968;-24.414;32.715;23.438;21.973;23.926
1553638968;9.766;51.758;19.531;10.254;26.367
1553638968;-15.137;38.574;22.949;-3.906;23.438
1553638968;13.184;27.344;24.414;4.883;29.785
1553638968;20.02;34.668;28.809;36.133;31.25
1553638968;-18.555;41.504;27.832;32.227;21.973
1553638968;-26.367;41.992;22.949;3.418;5.859
1553638968;-9.277;40.527;19.531;7.812;12.695
1553638968;33.691;33.691;23.926;47.363;24.902
1553638968;6.348;28.32;28.809;47.852;20.996
1553638968;-23.438;37.598;28.32;32.715;36.621
1553638968;32.715;37.598;35.156;34.18;41.016
1553638968;27.832;39.062;36.621;24.414;18.066
1553638968;-28.809;41.016;31.25;16.602;11.23
1553638968;-27.344;46.875;25.879;16.602;13.672
1553638968;0;51.27;30.762;3.418;15.137
1553638968;7.812;43.945;40.039;15.625;27.344
1553638968;21.484;53.223;33.203;20.508;30.273
1553638968;61.035;64.453;31.25;37.598;33.691
1553638968;47.363;56.641;39.062;35.645;47.852
1553638968;7.324;39.551;39.062;14.16;23.926
1553638968;-32.715;45.41;41.016;27.832;-0.977
1553638968;-12.695;51.758;38.086;38.574;17.09
1553638968;33.691;47.363;34.668;17.09;19.043
1553638968;12.207;51.758;37.109;-13.184;9.277
1553638968;37.598;43.945;44.434;30.762;26.855
1553638968;24.902;42.969;46.875;50.293;28.809
1553638968;-20.508;43.457;40.039;24.414;11.719
1553638968;-21.484;44.434;31.738;-6.348;13.184
1553638968;-16.113;53.711;35.156;-5.859;8.301
1553638968;14.16;60.059;45.898;35.645;25.879
1553638968;20.996;56.152;41.992;40.527;25.879
1553638968;18.555;53.711;36.133;4.395;-0.488
1553638968;22.461;48.34;38.574;12.207;10.254
1553638968;56.152;48.828;43.945;39.551;55.664
1553638968;29.785;50.293;56.152;37.598;73.73
1553638968;5.859;45.41;57.129;-2.93;10.742
1553638968;-18.555;60.059;42.969;-24.902;-26.367
1553638968;-55.176;59.57;37.109;-7.324;-18.555
1553638968;-11.23;48.34;41.016;-7.324;-8.301
1553638968;1.465;43.945;41.504;-30.273;-17.578
1553638968;-62.5;40.039;44.434;-20.508;-36.133
1553638968;-55.176;41.992;40.039;-20.996;-35.156
1553638968;-21.484;54.688;36.621;-14.648;-26.855
1553638968;-68.359;54.199;37.109;-17.09;-31.738
1553638968;-70.801;40.039;27.344;-67.383;-52.734
1553638968;-74.219;46.387;32.715;-81.543;-47.852
1553638968;-63.965;51.27;32.227;-66.406;-43.945
1553638968;-44.922;43.457;22.949;-61.523;-47.363
1553638968;-36.621;43.457;25.391;-57.129;-23.438
1553638968;-8.789;47.852;32.715;-23.438;-6.836
1553638968;-18.066;48.828;39.062;-6.836;-15.137
1553638968;-16.113;51.758;40.527;-18.066;-6.836
1553638968;-5.371;55.176;38.574;-0.488;7.812
1553638968;-20.996;59.082;33.691;-5.371;-5.371
1553638968;-14.16;51.758;35.645;-15.625;-10.254
1553638968;1.953;45.898;44.434;17.578;9.277
1553638968;23.438;42.969;47.363;43.457;25.391
1553638968;12.695;49.316;32.715;-0.488;20.02
1553638968;-15.625;49.805;29.785;-17.09;7.324
1553638968;7.812;41.016;40.039;18.066;13.184
1553638968;42.969;43.457;36.621;19.043;25.391
1553638968;12.207;37.109;30.762;4.395;27.832
1553638968;-21.973;25.391;31.738;13.672;20.02
1553638968;45.898;43.457;31.25;66.895;29.297
1553638968;40.039;52.246;31.738;43.457;25.391
1553638968;-4.883;41.992;37.109;-14.16;11.23
1553638968;56.641;50.781;38.574;-10.742;21.973
1553638968;59.57;38.086;36.133;14.648;35.645
1553638968;10.742;27.832;35.645;10.254;15.625
1553638968;18.555;32.715;30.762;-12.207;0.488
1553638968;24.902;33.691;33.203;12.695;31.738
1553638968;17.578;43.457;32.715;26.855;36.621
1553638968;8.301;40.527;33.203;21.973;27.344
1553638968;13.672;46.387;37.598;34.668;39.062
1553638968;7.812;38.086;33.691;37.109;26.855
1553638968;-20.996;20.508;34.668;38.086;4.395
1553638968;-2.441;31.25;32.227;33.691;20.996
1553638968;47.852;44.434;20.02;16.113;41.504
1553638968;49.805;39.551;25.879;9.766;24.902
1553638968;15.137;37.109;40.527;12.695;20.996
1553638968;0;38.574;35.156;14.16;24.414
1553638968;21.973;30.273;36.621;11.23;12.695
1553638968;32.227;25.391;37.109;35.156;7.324
1553638969;31.738;27.344;34.18;47.852;20.02
1553638969;21.973;30.273;25.879;-10.742;19.043
1553638969;26.855;38.574;20.508;23.438;17.578
1553638969;65.43;32.715;35.156;47.363;26.855
1553638969;31.738;19.043;39.551;11.719;28.809
1553638969;-13.672;20.996;30.273;23.438;33.203
1553638969;-14.16;37.598;20.508;13.672;34.18
1553638969;-5.859;33.203;21.484;-17.578;26.367
1553638969;2.441;11.719;27.832;-4.883;37.109
1553638969;56.641;15.137;32.227;27.832;53.711
1553638969;59.082;27.344;33.203;13.184;17.09
1553638969;0.488;29.297;25.391;0.977;-30.273
1553638969;-9.277;28.32;20.02;36.621;-9.277
1553638969;8.301;26.367;18.555;74.707;30.273
1553638969;40.039;33.691;19.043;58.105;24.902
1553638969;44.434;39.551;26.367;25.879;17.09
1553638969;16.113;30.762;34.668;55.176;39.551
1553638969;44.434;33.691;33.203;83.496;53.711
1553638969;55.664;36.133;28.809;77.148;55.664
1553638969;80.566;30.762;29.297;71.777;66.406
1553638969;112.305;30.273;31.738;60.059;65.918
1553638969;85.449;33.203;28.32;37.598;54.199
1553638969;74.219;39.551;28.32;70.801;63.965
1553638969;75.195;39.551;30.273;109.863;78.613
1553638969;94.238;32.227;43.945;98.633;83.008
1553638969;82.52;42.969;49.805;82.031;88.867
1553638969;74.219;53.223;42.969;108.887;86.914
1553638969;96.191;41.992;42.969;108.887;73.73
1553638969;83.496;33.691;41.016;71.289;52.734
1553638969;44.922;36.621;34.18;41.016;49.316
1553638969;47.363;39.551;33.691;36.133;58.105
1553638969;106.445;33.203;44.434;96.68;70.312
1553638969;95.703;38.574;44.434;95.703;77.148
1553638969;60.059;39.062;28.809;62.012;55.176
1553638969;32.227;34.668;25.391;80.566;50.293
1553638969;43.457;43.945;31.25;75.684;66.895
1553638969;90.332;39.551;26.855;59.57;58.594
1553638969;54.688;33.203;24.414;74.707;45.41
1553638969;22.949;26.855;26.855;69.824;54.688
1553638969;50.781;17.578;28.809;54.199;52.246
1553638969;45.898;24.902;33.203;52.734;52.246
1553638969;39.551;23.438;30.273;62.5;71.289
1553638969;92.773;22.461;28.809;70.312;74.707
1553638969;111.816;25.391;34.668;84.473;71.289
1553638969;61.035;22.949;25.879;59.082;54.199
1553638969;61.035;24.414;16.113;42.48;44.922
1553638969;77.637;31.25;21.973;62.5;68.359
1553638969;41.992;21.484;25.391;65.918;67.871
1553638969;20.02;19.531;27.344;79.102;60.547
1553638969;52.246;20.02;32.715;75.195;65.918
1553638969;72.266;3.418;37.598;69.824;55.664
1553638969;62.988;14.648;37.109;85.449;49.316
1553638969;38.574;11.719;34.668;61.035;55.176
1553638969;24.414;-5.859;35.645;49.316;57.129
1553638969;45.898;9.277;37.598;77.148;59.57
1553638969;45.41;22.949;36.133;48.828;36.133
1553638969;32.715;33.203;36.621;21.973;12.207
1553638969;27.344;41.992;32.227;27.344;7.812
1553638969;6.836;47.363;26.855;32.715;4.395
1553638969;30.762;59.082;30.762;30.273;1.953
1553638969;12.207;64.941;29.785;3.906;-22.461
1553638969;-49.805;65.43;17.09;-12.207;-31.25
1553638969;-29.785;74.219;12.695;-24.902;-17.09
1553638969;-20.996;88.379;17.09;-28.809;-10.254
1553638969;-17.578;97.168;15.137;-27.344;-21.484
1553638969;-2.441;101.074;7.324;-20.02;-28.32
1553638969;-1.465;105.469;4.395;0;-18.066
1553638969;13.672;102.051;5.371;-4.883;-17.578
1553638969;11.23;97.168;6.836;-25.391;-18.555
1553638969;9.277;99.609;8.789;-38.086;-22.461
1553638969;10.742;97.168;8.789;-20.996;-16.113
1553638969;3.906;79.102;11.719;-18.555;-5.859
1553638969;20.996;76.172;14.648;-28.32;2.93
1553638969;47.852;83.008;21.484;-9.766;18.066
1553638969;37.598;77.148;25.879;5.371;17.578
1553638969;18.066;67.383;29.785;20.508;17.578
1553638969;23.926;59.082;26.367;16.602;20.508
1553638969;25.391;59.082;24.414;5.859;15.137
1553638969;37.109;56.641;36.621;17.09;20.02
1553638969;55.176;47.363;32.227;31.738;23.926
1553638969;58.594;44.922;27.832;50.781;34.668
1553638969;48.828;42.48;41.992;46.387;40.527
1553638969;38.086;41.016;32.227;22.461;30.762
1553638969;50.781;44.434;34.668;23.438;36.621
1553638969;54.688;42.48;48.34;51.27;46.387
1553638969;43.945;40.527;43.945;39.551;54.199
1553638969;35.645;37.598;42.48;20.02;55.664
1553638969;27.832;34.668;41.016;58.594;53.711
1553638969;24.902;35.645;36.621;63.965;53.223
1553638969;32.715;29.297;34.18;48.34;60.547
1553638969;36.621;32.227;33.691;38.574;66.406
1553638969;46.387;37.598;36.133;36.621;55.664
1553638969;70.801;33.203;36.133;39.551;57.617
1553638969;60.547;27.832;36.621;37.109;70.801
1553638969;21.484;25.879;38.574;39.062;70.312
1553638969;21.973;25.879;39.551;21.973;66.406
1553638969;34.668;25.879;38.086;21.973;62.988
1553638969;23.438;21.484;32.227;29.785;63.965
1553638969;39.062;12.695;32.227;26.855;57.617
1553638969;52.734;16.602;36.621;50.293;54.199
1553638969;48.828;20.996;38.574;44.434;53.711
1553638969;41.504;20.02;34.668;7.812;48.34
1553638969;17.09;17.09;30.273;20.508;55.176
1553638969;52.246;16.602;31.25;45.41;60.059
1553638969;55.664;28.32;34.18;18.555;56.641
1553638969;20.996;29.785;39.551;11.719;50.781
1553638969;30.762;28.809;39.062;20.508;42.969
1553638969;40.039;30.762;34.668;11.23;41.504
1553638969;38.574;27.344;40.039;30.273;48.828
1553638969;28.809;24.414;43.457;29.785;42.969
1553638969;47.852;25.879;42.48;25.879;42.969
1553638969;55.664;30.762;45.898;42.969;50.781
1553638969;4.395;29.297;46.875;23.438;36.621
1553638969;-6.348;29.785;41.992;-5.371;29.785
1553638969;24.414;35.156;38.574;5.371;43.457
1553638969;33.203;37.109;39.551;13.672;46.875
1553638969;30.762;36.621;38.574;4.883;38.574
1553638969;35.645;31.25;37.109;21.484;41.016
1553638969;38.086;26.855;37.598;43.457;38.086
1553638969;22.461;27.832;38.086;26.367;34.18
1553638969;24.902;25.391;35.156;7.812;28.32
1553638969;25.391;25.391;30.273;9.766;18.555
1553638969;14.648;23.926;32.227;24.414;18.555
1553638969;11.719;17.09;32.715;44.434;24.902
1553638969;43.457;21.973;24.414;34.18;35.645
1553638969;60.547;26.855;20.996;27.832;33.203
1553638969;27.832;22.949;26.855;39.551;38.086
1553638969;23.926;18.066;28.809;37.598;38.574
1553638969;32.227;22.461;26.367;41.992;35.156
1553638969;39.062;22.949;22.461;16.113;22.461
1553638969;35.156;18.066;22.461;20.996;15.625
1553638969;15.625;20.508;26.367;45.41;27.344
1553638969;18.066;20.508;25.391;35.645;34.668
1553638969;44.434;16.113;25.391;28.809;31.25
1553638969;44.922;17.09;26.855;27.832;26.855
1553638969;35.645;19.531;26.855;23.926;28.809
1553638969;35.156;12.207;26.855;21.973;35.156
1553638969;19.531;6.836;25.879;31.738;32.715
1553638969;8.789;13.672;23.438;48.34;28.809
1553638969;18.066;19.043;24.902;53.223;36.133
1553638969;34.668;21.973;28.32;41.504;38.086
1553638969;35.156;29.297;27.344;42.48;43.945
1553638969;28.32;33.691;29.297;37.598;39.062
1553638969;24.414;27.832;32.715;31.25;28.32
1553638969;34.18;23.926;34.18;29.297;31.738
1553638969;44.434;31.738;33.691;9.766;29.297
1553638969;27.344;29.785;38.574;4.395;21.484
1553638969;13.184;24.902;41.016;22.461;16.113
1553638969;13.672;25.879;34.668;19.043;21.484
1553638969;21.484;24.902;33.691;23.926;27.832
1553638969;40.527;28.809;37.598;63.477;23.438
1553638969;37.598;31.25;39.062;44.434;16.602
1553638969;23.926;28.809;37.598;24.414;19.043
1553638969;16.113;31.25;35.645;24.414;20.02
1553638969;20.508;32.227;32.715;13.672;7.324
1553638969;25.879;36.621;33.203;-2.93;10.742
1553638969;16.602;46.387;33.691;-20.508;24.902
1553638969;39.551;45.41;34.668;10.254;36.133
1553638969;45.41;32.227;34.18;22.461;26.855
1553638969;28.32;26.855;32.227;-3.906;10.254
1553638969;36.621;31.738;30.273;-8.789;3.906
1553638969;20.508;33.691;33.203;41.504;-4.883
1553638969;-38.086;26.855;32.227;29.785;-16.602
1553638969;-34.18;26.367;24.414;-31.738;-15.137
1553638969;20.02;34.668;31.25;2.441;3.906
1553638969;20.508;35.645;38.574;49.316;21.973
1553638969;2.441;32.227;32.715;22.461;18.066
1553638969;-17.09;26.855;26.855;-9.277;2.93
1553638969;-19.043;22.461;32.715;-8.301;-1.465
1553638969;6.348;27.832;35.156;-4.395;6.348
1553638969;38.574;26.855;36.621;11.23;18.066
1553638969;26.367;27.344;41.016;31.738;16.602
1553638969;8.301;27.344;35.156;25.391;13.672
1553638969;5.859;23.438;30.273;-3.418;15.625
1553638969;15.137;24.414;36.133;-5.859;29.785
1553638969;48.34;23.438;39.062;33.203;46.387
1553638969;32.715;20.508;32.227;38.086;30.762
1553638969;29.785;15.625;28.809;18.066;25.391
1553638969;35.156;19.043;31.738;11.23;36.621
1553638969;71.777;28.809;44.434;35.156;60.059
1553638969;70.312;30.273;44.434;37.109;45.41
1553638969;-26.367;18.555;35.645;-0.488;-1.953
1553638969;-38.574;20.02;34.18;3.418;5.859
1553638969;9.277;27.832;33.203;8.789;34.668
1553638969;15.625;28.32;35.645;-6.348;33.203
1553638969;33.203;29.785;33.203;6.348;38.086
1553638969;63.477;38.574;25.879;40.527;52.246
1553638969;10.254;28.32;25.391;30.762;35.156
1553638969;1.953;10.254;33.203;27.344;29.785
1553638969;47.852;18.066;33.203;59.082;43.945
1553638969;18.066;28.809;32.715;62.988;40.527
1553638969;5.859;23.438;32.227;61.523;23.438
1553638969;23.926;19.043;24.902;54.688;13.672
1553638969;25.391;19.531;20.996;0;15.625
1553638969;32.227;26.855;23.438;-19.531;23.438
1553638969;44.434;31.25;22.949;0.488;34.668
1553638969;38.574;30.273;17.09;31.738;48.828
1553638969;22.461;18.066;24.414;41.016;30.273
1553638969;28.809;16.113;31.738;11.23;9.766
1553638969;26.367;26.367;24.414;30.273;11.719
1553638969;16.113;31.25;28.809;64.453;21.973
1553638969;25.391;33.203;31.738;44.922;32.715
1553638969;32.227;23.926;30.273;12.207;34.18
1553638969;41.992;16.113;33.203;3.418;29.785
1553638969;44.922;16.113;34.18;-0.488;29.297
1553638969;25.391;20.996;33.203;1.953;26.367
1553638969;25.879;34.668;29.785;20.996;18.555
1553638969;30.762;41.016;27.344;25.879;16.602
1553638969;31.738;37.109;34.668;13.672;22.949
1553638969;53.223;34.18;37.109;16.113;33.691
1553638969;52.246;33.203;28.809;37.598;40.039
1553638969;47.363;23.438;32.715;46.875;44.434
1553638969;67.871;24.414;37.109;44.922;52.734
1553638969;79.59;37.598;38.574;45.898;47.852
1553638969;59.082;38.574;43.457;73.242;33.203
1553638969;20.02;41.992;37.109;78.613;21.484
1553638969;6.836;45.41;32.715;66.406;26.367
1553638969;20.02;43.945;27.832;37.109;37.598
1553638969;43.457;47.363;37.598;15.625;41.504
1553638969;45.898;51.758;52.246;18.555;39.062
1553638969;45.898;54.688;47.363;2.93;32.715
1553638969;31.25;55.176;37.598;3.418;16.602
1553638969;16.113;54.199;36.621;-7.324;6.836
1553638969;17.578;53.711;33.203;-13.672;-2.441
1553638969;20.996;62.5;18.555;10.254;5.859
1553638969;55.176;73.73;17.09;43.457;40.527
1553638969;19.531;61.035;32.227;27.832;22.461
1553638969;-28.809;49.805;43.945;-0.977;-25.391
1553638969;-29.785;50.293;49.316;-14.648;-34.18
1553638969;-56.152;40.527;50.781;-52.734;-44.922
1553638969;-80.078;26.855;54.199;-73.242;-62.988
1553638969;-81.543;14.648;61.035;-59.57;-59.082
1553638969;-73.242;5.859;64.941;-48.828;-64.453
1553638969;-83.008;-3.906;67.383;-52.246;-83.496
1553638969;-89.355;-9.277;70.801;-61.523;-77.148
1553638969;-100.586;-16.113;73.242;-61.523;-71.289
1553638969;-101.562;-31.25;72.266;-22.461;-72.754
1553638969;-88.379;-45.41;77.148;-23.438;-74.707
1553638969;-111.328;-56.152;83.496;-55.664;-79.102
1553638969;-107.91;-63.477;78.125;-34.668;-62.012
1553638969;-92.285;-69.336;76.172;5.371;-53.223
1553638969;-81.055;-78.613;83.984;7.324;-36.133
1553638969;-53.223;-91.309;86.426;5.859;-5.371
1553638969;-40.039;-102.539;84.473;14.648;4.395
1553638969;-8.789;-105.469;82.52;63.965;8.789
1553638969;-18.555;-107.91;81.055;89.355;19.043
1553638969;-33.203;-116.211;80.566;79.102;29.297
1553638969;-12.207;-124.023;81.543;111.328;34.668
1553638969;-9.277;-128.906;73.242;132.324;46.875
1553638969;18.066;-126.465;67.871;135.742;47.852
1553638969;22.949;-114.746;68.848;148.438;60.059
1553638969;48.34;-110.84;60.059;149.902;90.332
1553638969;92.285;-106.934;60.059;131.836;83.984
1553638969;59.082;-99.121;60.547;131.836;79.59
1553638969;41.016;-101.074;52.734;132.812;86.914
1553638969;37.109;-99.609;49.805;131.348;94.727
1553638970;34.668;-88.867;49.805;150.391;94.238
1553638970;50.781;-79.102;52.734;166.016;88.379
1553638970;67.383;-67.871;51.758;144.531;91.797
1553638970;66.895;-56.152;46.387;144.043;100.586
1553638970;58.594;-49.316;44.922;157.227;101.074
1553638970;77.148;-47.852;43.457;141.113;91.797
1553638970;102.051;-43.457;41.016;125.977;86.914
1553638970;81.055;-40.039;35.645;126.465;85.938
1553638970;71.289;-39.062;39.062;105.469;85.938
1553638970;50.781;-31.25;46.387;103.027;83.984
1553638970;32.227;-26.855;48.34;122.559;72.266
1553638970;70.801;-25.391;49.316;119.629;70.312
1553638970;68.848;-22.461;44.434;125;71.777
1553638970;66.895;-16.602;39.062;110.352;58.594
1553638970;71.777;-13.672;38.086;96.191;50.293
1553638970;51.27;-13.672;32.715;103.516;54.688
1553638970;56.152;-5.371;34.668;104.492;62.988
1553638970;61.035;-4.395;48.34;110.84;75.195
1553638970;49.805;-2.441;41.504;83.496;70.312
1553638970;48.34;7.812;33.691;87.402;66.406
1553638970;60.547;11.23;41.016;126.465;70.801
1553638970;71.289;11.719;39.551;93.75;63.477
1553638970;35.645;12.695;36.621;45.898;59.57
1553638970;21.973;15.137;41.016;57.129;64.453
1553638970;37.598;20.02;40.039;65.43;65.43
1553638970;35.645;23.926;39.551;80.566;52.734
1553638970;33.691;23.926;36.621;67.383;41.504
1553638970;32.715;24.902;29.785;41.016;41.016
1553638970;51.758;27.832;31.25;53.711;40.039
1553638970;54.199;27.344;34.18;52.734;45.898
1553638970;17.09;25.879;35.645;56.152;38.574
1553638970;19.531;30.273;38.574;51.27;29.785
1553638970;70.801;33.203;39.062;34.668;48.34
1553638970;62.988;24.902;40.527;45.41;49.805
1553638970;17.09;24.414;34.668;45.898;41.504
1553638970;20.02;29.785;24.902;39.062;37.109
1553638970;51.27;28.32;33.691;59.082;38.574
1553638970;47.852;31.25;47.363;55.664;43.945
1553638970;21.484;33.203;46.875;25.879;44.922
1553638970;53.711;32.715;45.898;43.945;55.176
1553638970;24.414;35.156;51.758;50.293;49.316
1553638970;-1.465;25.391;52.734;9.277;20.508
1553638970;16.602;20.02;47.363;18.066;18.555
1553638970;20.996;20.996;47.363;39.062;29.297
1553638970;23.926;24.414;46.875;24.414;30.273
1553638970;32.715;28.32;52.246;55.664;35.156
1553638970;41.504;29.297;56.152;53.711;37.109
1553638970;28.809;30.273;54.199;20.996;44.922
1553638970;62.5;31.25;57.617;43.457;44.922
1553638970;114.258;32.227;54.688;44.922;35.156
1553638970;62.5;27.344;49.805;39.062;30.762
1553638970;-12.207;25.391;54.199;47.363;34.668
1553638970;-3.418;26.855;56.641;41.016;39.551
1553638970;17.578;29.297;52.734;31.25;46.387
1553638970;26.367;30.762;48.828;36.133;49.316
1553638970;31.738;33.691;48.34;38.086;50.781
1553638970;28.809;37.598;45.41;31.738;39.551
1553638970;33.203;41.504;41.992;23.926;26.367
1553638970;32.227;41.016;46.875;36.621;26.855
1553638970;13.184;36.133;46.387;44.434;28.809
1553638970;0.977;31.738;45.898;23.438;37.109
1553638970;30.762;30.762;43.945;17.09;43.945
1553638970;62.012;36.621;42.969;31.738;40.527
1553638970;50.781;40.039;46.875;24.414;34.668
1553638970;36.621;44.434;43.457;24.902;32.227
1553638970;47.852;45.41;41.504;24.414;26.367
1553638970;44.922;42.969;48.34;47.363;34.668
1553638970;35.156;42.969;49.316;59.082;49.805
1553638970;46.387;47.363;44.434;35.645;51.27
1553638970;46.387;45.41;41.992;33.203;40.527
1553638970;37.109;42.48;45.41;44.922;31.25
1553638970;23.438;46.387;43.457;35.645;35.156
1553638970;-2.441;44.434;38.086;12.695;33.203
1553638970;4.395;41.016;35.645;-0.488;19.043
1553638970;26.367;39.551;37.109;6.836;22.461
1553638970;22.949;35.645;38.574;17.09;24.902
1553638970;39.551;40.527;36.133;12.695;18.066
1553638970;35.645;43.945;27.832;23.926;17.578
1553638970;30.273;41.016;24.902;12.207;15.137
1553638970;17.578;38.574;29.785;-1.953;15.137
1553638970;-21.484;40.039;30.273;-1.465;14.16
1553638970;-11.23;42.969;31.25;8.789;15.625
1553638970;13.184;48.828;33.691;14.16;20.996
1553638970;12.207;52.246;32.227;6.348;16.602
1553638970;13.672;52.246;27.344;18.555;14.16
1553638970;12.207;52.734;28.809;17.09;14.648
1553638970;27.344;55.664;36.621;-5.371;17.09
1553638970;39.062;58.105;40.527;-15.137;19.531
1553638970;23.926;58.594;42.48;-0.488;18.555
1553638970;40.039;59.082;42.48;18.066;30.273
1553638970;32.227;57.129;44.434;20.996;22.949
1553638970;10.254;56.152;42.969;14.16;9.766
1553638970;29.297;61.523;41.992;14.16;19.531
1553638970;11.23;62.012;40.527;30.762;20.996
1553638970;1.953;62.012;41.504;33.691;21.484
1553638970;24.414;65.918;44.434;21.973;21.973
1553638970;27.344;66.406;43.457;10.742;25.391
1553638970;21.973;67.383;46.387;-1.953;34.18
1553638970;19.043;63.965;50.293;20.02;25.879
1553638970;28.32;58.105;55.176;37.109;26.367
1553638970;64.941;61.523;50.781;29.297;37.109
1553638970;52.246;72.266;47.852;20.996;32.227
1553638970;17.578;77.148;50.293;7.324;24.902
1553638970;13.184;69.336;50.293;5.859;22.461
1553638970;15.625;62.5;55.664;12.207;21.973
1553638970;39.551;65.43;60.059;26.855;26.367
1553638970;47.852;65.43;59.57;45.898;28.809
1553638970;20.02;70.312;45.41;28.809;21.484
1553638970;5.859;79.102;45.898;28.809;28.809
1553638970;11.719;74.707;59.57;23.438;29.785
1553638970;10.254;66.406;60.059;18.066;18.555
1553638970;46.875;70.801;56.641;43.457;16.602
1553638970;75.684;70.312;58.105;5.859;20.996
1553638970;37.598;78.613;54.688;-10.254;23.438
1553638970;8.301;79.102;57.617;20.996;30.273
1553638970;4.395;68.359;66.895;40.039;36.621
1553638970;16.602;73.73;62.012;26.855;30.762
1553638970;7.812;70.312;49.805;16.602;16.113
1553638970;24.414;72.266;51.758;29.297;30.273
1553638970;53.223;75.684;57.617;29.297;38.574
1553638970;41.992;71.777;60.547;11.23;25.391
1553638970;45.41;81.543;61.523;15.625;38.086
1553638970;47.363;82.031;62.012;20.996;32.715
1553638970;24.414;83.008;58.105;47.363;14.16
1553638970;14.648;82.031;56.641;42.48;14.16
1553638970;-2.441;69.824;53.711;-30.762;5.859
1553638970;-23.926;65.918;52.734;-26.855;9.277
1553638970;-24.902;63.477;60.059;-7.324;18.555
1553638970;18.555;69.336;61.035;-9.277;25.879
1553638970;47.852;80.078;62.5;5.859;30.273
1553638970;43.945;79.59;66.406;30.762;28.32
1553638970;35.156;86.426;58.105;29.297;24.414
1553638970;6.836;84.473;63.477;72.754;37.109
1553638970;7.812;72.266;66.406;59.57;27.832
1553638970;4.883;70.801;61.523;-10.254;11.23
1553638970;28.809;74.707;64.941;3.418;18.555
1553638970;28.32;82.031;59.082;26.855;18.555
1553638970;33.203;73.242;66.895;35.645;24.902
1553638970;36.621;68.848;66.895;-9.277;20.996
1553638970;-6.836;84.473;56.641;-43.945;27.344
1553638970;10.742;85.449;66.406;5.371;41.992
1553638970;17.09;76.66;70.312;14.16;13.184
1553638970;2.93;73.73;62.5;-10.254;-20.996
1553638970;-16.602;77.148;60.059;2.93;-13.672
1553638970;-20.996;80.566;62.5;13.672;3.418
1553638970;-11.719;79.102;64.941;4.395;7.324
1553638970;15.137;82.031;64.941;-7.324;6.836
1553638970;19.531;82.52;62.5;-29.297;6.836
1553638970;-5.371;75.195;66.895;-29.297;14.16
1553638970;5.859;70.312;72.266;1.953;34.18
1553638970;20.02;78.613;68.848;11.23;30.273
1553638970;-0.488;85.449;56.152;-9.277;-3.418
1553638970;-26.855;82.52;46.387;-22.461;-23.926
1553638970;-20.508;81.543;47.363;-20.508;-20.508
1553638970;18.555;83.984;51.27;-11.719;-7.324
1553638970;28.809;88.867;53.223;-16.602;5.859
1553638970;-0.977;95.703;57.617;-14.648;17.09
1553638970;17.09;99.121;62.012;1.953;28.809
1553638970;24.902;90.332;57.129;-5.371;30.762
1553638970;7.324;80.566;51.27;-2.93;23.926
1553638970;8.789;82.52;54.688;27.832;20.508
1553638970;49.805;90.332;53.711;23.438;14.648
1553638970;50.293;93.262;47.852;23.438;20.996
1553638970;25.391;93.262;47.363;17.578;25.391
1553638970;32.715;86.426;54.688;15.137;23.438
1553638970;9.766;79.59;56.152;28.32;35.645
1553638970;58.594;83.008;56.152;56.152;42.969
1553638970;60.059;86.426;59.082;48.34;41.504
1553638970;10.742;81.543;57.129;31.738;41.992
1553638970;30.273;77.637;53.223;37.598;37.598
1553638970;49.805;86.426;53.223;35.645;40.527
1553638970;43.457;91.797;55.664;52.246;42.969
1553638970;26.855;84.473;58.594;66.406;31.738
1553638970;48.34;82.52;59.082;29.785;25.879
1553638970;40.039;84.961;60.547;8.301;29.785
1553638970;34.668;70.801;67.383;20.02;38.574
1553638970;37.109;65.918;60.059;23.926;38.574
1553638970;40.039;76.66;55.664;24.414;38.574
1553638970;41.016;85.938;63.477;34.18;52.246
1553638970;56.152;88.379;66.406;46.875;67.871
1553638970;56.152;80.078;59.57;42.969;60.059
1553638970;35.156;73.242;53.711;13.184;47.852
1553638970;26.367;72.266;55.664;20.02;43.457
1553638970;22.949;72.754;53.711;64.453;51.27
1553638970;33.691;69.336;51.27;55.664;48.828
1553638970;59.57;64.453;54.688;37.598;48.34
1553638970;55.664;65.918;57.617;10.742;52.734
1553638970;-5.859;74.219;56.152;13.184;53.223
1553638970;16.602;82.52;54.688;15.137;50.293
1553638970;23.438;70.312;61.035;12.695;41.992
1553638970;20.02;67.383;59.57;27.344;45.898
1553638970;26.855;79.102;49.316;23.926;39.062
1553638970;53.711;76.66;52.734;10.742;33.203
1553638970;64.453;70.801;55.664;50.293;29.297
1553638970;45.898;72.266;53.711;50.293;9.766
1553638970;59.082;70.312;56.152;25.391;5.371
1553638970;28.32;72.754;56.641;36.133;11.719
1553638970;18.555;73.242;64.941;18.066;20.02
1553638970;23.926;74.707;65.918;-7.324;20.508
1553638970;42.48;72.754;56.641;-17.578;11.719
1553638970;1.465;63.477;51.758;0.977;14.648
1553638970;-15.137;56.152;56.152;12.695;20.02
1553638970;70.801;61.523;61.523;9.766;22.461
1553638970;76.66;67.383;60.059;25.879;25.391
1553638970;62.5;75.195;58.594;27.832;22.949
1553638970;33.691;86.426;58.105;15.137;19.531
1553638970;-13.672;73.242;63.477;34.18;24.414
1553638970;25.879;68.848;64.941;35.645;28.809
1553638970;37.109;73.242;63.477;11.719;22.949
1553638970;28.32;78.125;59.57;21.484;18.066
1553638970;4.883;80.566;59.57;20.508;16.602
1553638970;7.324;73.73;65.918;8.789;23.438
1553638970;61.035;81.543;65.918;33.691;26.855
1553638970;28.32;83.008;55.176;53.711;18.555
1553638970;-1.465;70.312;51.758;37.598;30.273
1553638970;29.785;64.453;58.594;2.93;32.227
1553638970;26.855;74.219;57.129;-5.371;20.02
1553638970;40.039;81.055;55.176;0.977;20.996
1553638970;11.719;72.266;62.5;-6.836;18.555
1553638970;3.418;73.242;55.664;-20.508;15.625
1553638970;40.527;86.914;50.781;-13.672;5.859
1553638970;33.203;82.031;56.641;32.715;11.23
1553638970;37.109;85.449;58.105;34.668;16.602
1553638970;24.902;78.613;58.594;23.438;16.602
1553638970;14.648;69.824;55.664;31.738;27.832
1553638970;19.043;83.496;49.316;3.906;18.555
1553638970;14.16;91.309;57.129;7.324;31.25
1553638970;28.32;96.191;66.895;27.344;53.223
1553638970;45.41;95.215;69.336;40.527;38.574
1553638970;22.949;88.867;72.754;33.691;41.504
1553638970;-0.488;80.078;61.035;7.324;37.109
1553638970;33.691;90.82;52.734;18.066;22.461
1553638970;8.789;99.121;59.082;42.48;24.902
1553638970;11.719;91.797;59.57;41.992;32.227
1553638970;62.012;93.75;59.082;39.062;38.086
1553638970;14.16;93.75;51.27;42.48;22.949
1553638970;18.066;95.215;48.828;25.879;18.555
1553638970;30.273;91.309;58.105;16.113;23.438
1553638970;-10.742;85.938;55.664;12.207;30.762
1553638970;20.996;89.844;60.547;12.207;51.758
1553638970;41.992;89.844;62.012;8.789;34.668
1553638970;57.617;93.75;51.27;6.836;21.484
1553638970;27.344;92.773;50.781;-20.508;12.207
1553638970;-16.602;85.449;55.664;-7.324;26.855
1553638970;0.488;89.355;51.758;78.613;51.27
1553638970;29.297;106.445;48.828;86.914;51.27
1553638970;8.789;112.793;52.246;32.227;44.922
1553638970;0;95.215;49.316;-0.977;28.809
1553638970;34.18;84.961;51.758;-6.348;18.555
1553638970;11.719;90.332;48.34;2.441;12.695
1553638970;36.621;85.938;43.945;-0.977;24.414
1553638970;25.879;93.75;49.805;-6.836;24.902
1553638970;0;100.586;51.758;54.688;23.926
1553638970;42.969;91.797;57.129;67.383;36.621
1553638970;53.223;104.004;53.223;33.691;27.832
1553638970;23.438;114.746;57.129;8.789;15.625
1553638971;2.93;99.609;62.5;-47.363;3.906
1553638971;-11.23;100.586;53.711;-33.203;-14.16
1553638971;-21.973;104.492;50.293;13.672;-10.254
1553638971;26.855;118.164;50.781;30.273;22.949
1553638971;38.086;123.047;47.363;-5.859;23.438
1553638971;-6.836;112.793;49.805;-24.902;-2.93
1553638971;33.203;111.816;50.781;20.996;9.766
1553638971;61.035;118.164;48.828;20.508;23.438
1553638971;30.273;111.328;60.547;8.301;25.879
1553638971;47.852;106.445;70.312;36.133;22.461
1553638971;41.992;115.234;65.43;41.504;21.484
1553638971;38.086;122.559;50.781;15.625;27.832
1553638971;29.785;106.445;53.223;-1.953;34.668
1553638971;-12.207;85.449;54.688;-9.277;21.484
1553638971;-3.418;92.285;48.828;17.578;25.879
1553638971;76.66;95.703;57.129;62.5;53.711
1553638971;71.777;90.82;57.617;39.551;34.668
1553638971;19.043;99.121;55.664;20.02;23.438
1553638971;62.5;103.516;62.012;42.48;29.297
1553638971;34.18;87.402;60.547;26.855;23.926
1553638971;15.625;80.078;60.059;18.555;37.109
1553638971;54.688;75.195;58.594;22.949;45.41
1553638971;36.621;73.73;56.641;37.598;37.598
1553638971;18.555;77.148;56.152;36.133;39.551
1553638971;35.156;76.66;53.711;-12.207;41.504
1553638971;48.34;89.844;56.641;16.602;54.688
1553638971;51.27;91.309;56.641;51.758;47.363
1553638971;21.484;72.754;48.34;-2.441;17.578
1553638971;-7.812;55.176;53.711;4.395;19.043
1553638971;25.391;64.941;51.27;60.059;39.551
1553638971;50.781;75.195;49.316;29.297;39.551
1553638971;41.992;75.684;56.152;15.137;21.973
1553638971;21.484;69.824;51.758;12.207;20.996
1553638971;18.066;74.219;50.293;-5.371;32.715
1553638971;23.926;73.242;56.641;21.484;37.598
1553638971;-6.348;65.918;52.734;-14.648;7.812
1553638971;26.855;79.59;46.387;-18.555;5.371
1553638971;57.617;70.312;56.641;22.461;28.809
1553638971;10.742;59.082;62.012;5.859;33.203
1553638971;-20.996;83.984;53.223;0.488;17.578
1553638971;15.625;91.309;49.316;25.879;43.457
1553638971;58.105;69.336;59.082;44.434;62.988
1553638971;41.016;55.664;65.43;-10.254;24.414
1553638971;41.016;70.312;59.082;-11.719;6.836
1553638971;5.859;78.125;58.105;22.461;8.301
1553638971;-8.789;68.848;66.895;28.809;18.555
1553638971;-12.695;71.777;55.176;2.441;-3.418
1553638971;-18.066;85.449;44.922;-25.879;-2.93
1553638971;-3.418;72.266;57.617;13.672;11.719
1553638971;13.672;56.152;62.988;36.621;13.672
1553638971;49.316;70.801;66.895;3.906;33.203
1553638971;40.039;72.266;61.035;-18.555;27.832
1553638971;24.902;91.797;46.387;-11.719;14.648
1553638971;17.09;87.402;52.246;-5.859;8.789
1553638971;0.977;64.941;53.223;5.371;9.277
1553638971;13.184;72.754;47.852;1.953;23.926
1553638971;-0.488;73.242;52.246;-23.926;5.859
1553638971;7.324;58.594;61.035;-28.32;-10.742
1553638971;25.879;56.152;60.059;15.625;21.484
1553638971;7.812;58.594;47.852;4.883;21.973
1553638971;1.465;52.734;54.688;-10.742;8.301
1553638971;21.973;58.105;58.105;38.574;13.672
1553638971;1.953;64.453;56.152;47.363;25.879
1553638971;-14.648;60.059;52.246;20.508;25.879
1553638971;58.105;71.777;45.41;43.457;47.852
1553638971;60.547;85.938;48.828;27.832;38.574
1553638971;-29.785;62.012;50.781;-36.621;-5.859
1553638971;-25.391;59.082;52.734;-57.129;-14.16
1553638971;20.508;86.914;52.246;-35.156;5.859
1553638971;3.906;88.379;48.34;-37.109;11.719
1553638971;-23.926;83.008;51.758;-82.52;-43.457
1553638971;-38.086;85.938;46.387;-79.102;-65.918
1553638971;-31.25;81.543;39.062;-74.707;-32.715
1553638971;-27.832;97.168;25.391;-62.5;-21.484
1553638971;-82.52;105.957;17.09;-52.734;-41.992
1553638971;-76.66;83.984;29.297;-81.055;-64.941
1553638971;-59.57;79.59;35.156;-91.797;-58.594
1553638971;-74.219;83.008;29.297;-86.914;-33.203
1553638971;-15.137;80.078;29.297;-29.297;-20.996
1553638971;-4.883;79.59;33.203;-19.043;-19.531
1553638971;-8.789;87.402;35.156;-57.617;0.488
1553638971;-2.93;77.148;29.785;-59.57;7.324
1553638971;-21.484;56.641;29.297;-49.316;-3.906
1553638971;-12.207;67.871;31.25;-20.02;-2.441
1553638971;10.742;72.754;36.133;-24.902;-6.836
1553638971;12.207;56.641;46.387;-30.762;-5.371
1553638971;-11.719;64.453;32.227;-29.297;-8.789
1553638971;-10.742;65.43;21.484;-19.531;1.953
1553638971;24.414;68.359;22.949;-24.902;22.461
1553638971;0;76.66;21.973;-24.902;14.648
1553638971;-12.207;61.035;31.738;-33.691;13.672
1553638971;21.973;56.152;34.668;-29.785;27.832
1553638971;42.969;62.5;36.133;19.043;28.32
1553638971;26.855;63.965;44.922;35.645;41.992
1553638971;0;67.871;42.48;32.227;38.574
1553638971;-2.93;67.871;35.645;-5.859;20.02
1553638971;8.301;72.754;35.645;-41.504;36.133
1553638971;36.133;61.523;43.945;9.277;49.316
1553638971;35.645;55.176;50.293;27.344;49.316
1553638971;55.664;63.477;39.551;6.348;47.363
1553638971;43.457;55.176;39.062;-0.488;31.738
1553638971;-12.207;50.781;48.34;14.16;33.203
1553638971;17.09;70.801;39.551;10.254;36.621
1553638971;38.574;80.566;35.156;23.438;20.508
1553638971;14.16;59.57;45.41;21.484;15.137
1553638971;39.551;53.711;45.898;17.09;42.48
1553638971;66.406;52.734;43.457;31.25;55.664
1553638971;5.859;57.129;40.039;21.484;51.758
1553638971;-20.508;50.781;31.25;-1.465;35.156
1553638971;49.805;46.875;40.039;-0.977;28.809
1553638971;57.617;61.035;49.805;30.762;38.574
1553638971;14.648;49.805;48.34;17.578;28.32
1553638971;3.906;42.48;45.41;30.273;25.391
1553638971;41.016;48.828;41.992;49.805;33.203
1553638971;83.496;50.293;40.527;40.039;28.32
1553638971;38.574;56.641;42.48;26.367;9.277
1553638971;-20.508;45.41;46.875;15.137;-1.465
1553638971;-16.113;40.039;45.898;-2.93;-4.395
1553638971;14.648;52.246;35.645;10.254;-3.418
1553638971;20.996;43.945;48.34;48.828;21.484
1553638971;47.852;48.34;47.852;34.668;30.762
1553638971;29.297;55.176;42.48;26.367;27.832
1553638971;0.488;46.387;57.617;2.441;27.832
1553638971;-0.488;41.504;54.199;-5.371;26.367
1553638971;51.27;54.199;50.293;47.363;59.57
1553638971;38.574;43.945;46.875;40.039;22.461
1553638971;-38.574;14.648;46.875;-0.488;-33.203
1553638971;-28.809;45.898;41.504;-14.16;-2.93
1553638971;9.766;67.383;39.551;-18.555;20.02
1553638971;18.066;40.527;44.922;18.066;21.484
1553638971;5.859;26.855;41.016;9.766;26.855
1553638971;18.066;36.133;41.016;9.277;36.133
1553638971;58.105;53.223;44.922;56.641;35.645
1553638971;5.859;45.898;48.34;16.113;1.953
1553638971;11.23;30.762;45.41;-29.785;-3.906
1553638971;38.574;14.16;46.875;-21.484;12.207
1553638971;-0.488;0.488;46.875;20.508;18.555
1553638971;-3.906;10.742;39.062;11.23;28.809
1553638971;20.508;12.695;37.109;-1.953;34.18
1553638971;61.523;8.301;41.992;-8.301;18.066
1553638971;25.391;3.906;43.945;-20.996;10.742
1553638971;-2.93;2.441;41.504;-12.207;18.066
1553638971;19.531;5.859;48.828;-10.254;11.23
1553638971;34.668;4.883;55.176;12.695;14.648
1553638971;33.691;12.207;46.875;58.105;35.156
1553638971;-3.418;12.207;39.551;47.363;29.785
1553638971;9.277;6.348;43.945;8.789;32.227
1553638971;65.43;10.742;43.457;6.348;30.273
1553638971;59.082;6.348;35.156;0.488;0.977
1553638971;10.742;7.324;40.527;-13.184;8.301
1553638971;-20.02;12.695;41.016;-14.648;19.043
1553638971;33.203;16.113;38.574;-8.301;20.02
1553638971;55.176;20.02;44.434;-11.23;22.461
1553638971;12.695;16.113;39.062;6.348;37.598
1553638971;13.184;17.09;40.039;21.484;40.039
1553638971;14.648;7.324;43.457;-7.812;13.672
1553638971;0.977;-2.93;41.016;-28.32;6.348
1553638971;25.879;6.836;43.457;1.953;21.973
1553638971;61.523;25.879;41.016;41.504;33.691
1553638971;48.828;14.648;37.109;23.438;30.762
1553638971;-4.883;-6.836;32.227;-32.227;-0.488
1553638971;14.648;1.953;40.039;12.207;5.371
1553638971;33.203;2.441;44.922;33.203;33.691
1553638971;15.625;2.93;46.387;9.277;32.227
1553638971;17.578;17.578;45.41;11.23;30.762
1553638971;14.16;21.973;44.434;-11.719;38.574
1553638971;22.949;0;45.41;-39.551;17.09
1553638971;16.113;-2.93;40.527;-23.438;5.371
1553638971;6.836;18.555;49.805;27.832;24.414
1553638971;41.016;14.648;49.316;33.203;17.578
1553638971;45.41;1.953;43.945;11.23;30.762
1553638971;11.719;0;51.758;-18.066;30.762
1553638971;19.531;8.301;52.246;8.301;18.555
1553638971;45.41;19.531;47.852;37.109;42.48
1553638971;49.316;18.555;40.039;37.598;38.086
1553638971;50.781;27.832;32.715;8.789;8.789
1553638971;41.992;30.273;42.48;0.977;6.348
1553638971;-34.18;-0.977;48.34;11.23;-3.418
1553638971;-43.457;-1.953;40.039;-6.836;-3.418
1553638971;7.812;20.996;41.016;2.441;16.113
1553638971;28.32;26.367;42.969;14.16;11.23
1553638971;49.316;19.043;44.922;17.09;8.789
1553638971;47.852;21.484;42.48;61.523;25.391
1553638971;21.484;23.438;38.574;39.551;17.09
1553638971;17.578;19.531;35.645;-1.953;1.953
1553638971;36.621;15.137;40.527;9.766;4.883
1553638971;37.598;14.648;46.387;60.059;40.039
1553638971;-21.484;16.113;37.598;29.785;30.273
1553638971;-39.062;28.809;36.133;-15.137;-1.953
1553638971;38.574;31.738;45.898;32.227;27.832
1553638971;60.059;20.996;51.758;42.48;33.691
1553638971;3.418;22.949;45.898;39.062;33.203
1553638971;3.906;36.133;40.527;8.789;37.109
1553638971;41.016;39.551;44.922;-2.93;29.785
1553638971;53.223;34.18;47.363;49.316;43.945
1553638971;61.035;43.945;49.316;68.848;51.758
1553638971;23.438;47.852;49.316;45.898;27.344
1553638971;8.789;40.039;44.434;38.086;20.996
1553638971;42.969;46.875;49.805;20.996;23.926
1553638971;28.809;43.457;61.523;17.09;24.414
1553638971;7.812;42.48;59.082;45.898;39.062
1553638971;21.484;61.035;51.758;83.984;39.062
1553638971;49.316;61.523;46.387;68.359;34.18
1553638971;-0.488;45.898;41.016;9.277;17.578
1553638971;-27.344;49.805;40.039;-7.812;14.648
1553638971;24.902;54.199;48.828;-2.93;25.391
1553638971;44.922;50.293;45.898;11.719;21.484
1553638971;57.617;45.41;54.688;63.965;49.316
1553638971;30.762;47.363;51.27;61.523;56.152
1553638971;-16.602;42.48;30.273;12.207;19.531
1553638971;22.949;43.945;32.227;11.23;12.207
1553638971;30.762;40.039;45.41;25.879;20.508
1553638971;-23.926;41.992;44.434;8.789;18.066
1553638971;32.715;59.57;31.25;36.133;27.344
1553638971;50.293;48.828;28.32;32.715;13.184
1553638971;8.789;54.199;32.227;0.488;8.789
1553638971;29.785;58.105;40.527;26.855;37.598
1553638971;26.855;50.293;30.273;34.18;27.832
1553638971;27.832;68.848;23.438;34.668;24.414
1553638971;17.578;56.641;34.18;15.625;32.715
1553638971;-1.953;43.457;40.039;21.973;20.02
1553638971;3.906;60.059;40.039;25.879;21.484
1553638971;20.02;65.43;34.668;-3.418;24.902
1553638971;45.898;62.988;28.809;39.551;27.832
1553638971;21.973;65.918;29.297;61.035;28.809
1553638971;-31.25;60.547;30.273;26.367;8.789
1553638971;-3.906;42.969;25.879;3.418;6.348
1553638971;19.531;52.246;28.32;6.348;24.902
1553638971;19.043;70.801;32.715;35.645;41.992
1553638971;54.688;65.43;37.109;49.805;53.711
1553638971;15.625;71.289;39.062;14.16;31.25
1553638971;29.785;72.754;38.086;0.488;12.695
1553638971;54.199;62.5;41.016;25.391;16.113
1553638971;-5.371;63.965;38.574;52.246;14.16
1553638971;2.441;81.543;32.715;45.898;20.996
1553638971;17.578;78.613;37.109;20.996;18.066
1553638971;22.461;71.777;39.551;13.672;18.555
1553638971;33.203;77.637;41.016;36.621;31.25
1553638971;10.254;76.66;36.621;50.293;37.598
1553638971;-10.742;73.73;36.621;35.645;39.062
1553638971;7.812;59.082;47.363;44.434;31.25
1553638971;67.871;77.148;47.363;45.41;37.598
1553638971;46.875;76.66;38.574;36.133;30.762
1553638971;-31.25;69.824;25.879;-1.465;1.465
1553638971;-15.137;85.938;20.996;-20.02;7.812
1553638971;-10.254;80.566;29.297;4.395;13.184
1553638971;-7.324;69.824;41.016;34.668;19.043
1553638971;20.996;69.824;42.969;39.551;17.578
1553638971;3.418;69.336;42.969;8.789;-4.883
1553638971;-32.227;71.289;46.875;24.414;8.301
1553638971;26.367;59.57;52.734;51.758;41.016
1553638971;39.062;65.918;41.992;34.668;46.387
1553638971;21.973;87.402;36.621;27.832;27.832
1553638971;24.414;74.707;46.875;17.578;-3.906
1553638971;-3.906;60.547;45.41;23.926;8.789
1553638971;11.23;64.453;47.363;33.203;41.504
1553638972;78.613;68.359;54.688;53.711;60.059
1553638972;77.637;71.289;54.688;54.199;53.223
1553638972;-7.324;62.988;42.969;12.695;5.859
1553638972;-3.418;42.48;39.551;-24.414;0.977
1553638972;74.707;47.852;46.875;17.09;62.012
1553638972;60.547;54.199;50.293;89.355;87.402
1553638972;81.055;41.992;51.758;91.797;73.242
1553638972;71.777;37.109;54.688;91.309;63.965
1553638972;27.344;44.434;44.922;89.844;63.477
1553638972;70.801;58.105;39.551;60.547;58.105
1553638972;72.754;50.781;54.199;47.852;54.688
1553638972;41.504;28.809;53.711;53.711;60.547
1553638972;57.617;41.504;40.039;61.523;75.195
1553638972;68.359;50.781;43.457;67.871;73.73
1553638972;92.285;43.457;50.781;95.703;65.43
1553638972;80.078;37.598;51.758;92.285;72.266
1553638972;45.898;36.621;41.016;54.688;71.777
1553638972;82.52;30.273;45.41;74.219;67.871
1553638972;46.875;21.973;49.805;68.359;54.688
1553638972;15.625;24.902;42.48;28.32;40.039
1553638972;48.34;41.016;38.086;26.855;51.27
1553638972;85.938;54.199;37.598;11.719;60.547
1553638972;55.176;27.832;42.48;8.789;44.922
1553638972;7.812;10.742;45.41;53.223;43.457
1553638972;36.133;34.668;43.457;72.754;47.363
1553638972;45.41;29.785;34.668;23.926;46.875
1553638972;44.922;10.254;35.645;24.414;49.316
1553638972;71.777;25.391;42.969;68.848;61.523
1553638972;81.055;36.133;41.504;63.965;64.941
1553638972;29.297;26.855;35.156;27.832;32.227
1553638972;20.996;40.039;27.344;25.879;40.039
1553638972;43.457;40.039;28.809;29.785;60.059
1553638972;9.766;24.902;40.039;-4.395;41.992
1553638972;47.363;34.668;49.316;-1.953;52.246
1553638972;41.504;34.668;51.27;37.109;52.734
1553638972;-13.672;29.297;41.992;57.617;32.715
1553638972;34.18;39.062;37.598;13.672;29.785
1553638972;45.898;31.738;38.574;9.277;49.805
1553638972;66.895;20.508;31.25;56.152;53.711
1553638972;80.078;32.715;31.25;69.336;39.062
1553638972;43.457;43.457;32.715;32.715;37.109
1553638972;33.203;42.48;36.621;3.418;29.297
1553638972;49.316;31.25;52.246;39.551;39.551
1553638972;47.363;37.598;46.387;75.684;44.922
1553638972;17.09;56.641;21.973;21.973;41.504
1553638972;49.805;56.641;20.508;-1.953;67.871
1553638972;55.176;51.27;29.297;46.875;82.031
1553638972;24.414;32.227;33.691;48.34;64.941
1553638972;30.762;20.996;45.41;61.035;34.668
1553638972;54.688;40.527;50.781;69.824;30.762
1553638972;74.707;37.109;49.316;41.992;53.711
1553638972;0.488;30.762;29.785;0.977;29.785
1553638972;-12.695;45.41;21.973;-17.578;3.906
1553638972;22.949;37.109;33.691;23.926;18.555
1553638972;34.18;28.809;36.621;57.617;36.133
1553638972;79.102;36.621;40.527;65.43;48.34
1553638972;63.477;28.809;46.875;53.223;62.012
1553638972;46.387;29.297;48.828;44.434;71.289
1553638972;28.32;41.992;48.34;39.551;31.738
1553638972;-34.668;54.199;34.668;21.484;5.859
1553638972;17.578;55.664;29.785;29.785;36.133
1553638972;85.938;59.082;36.133;58.594;54.688
1553638972;62.5;62.5;42.969;63.477;56.152
1553638972;42.969;51.27;55.176;69.824;58.594
1553638972;37.598;45.41;40.039;42.969;46.387
1553638972;55.664;62.5;29.297;32.715;53.223
1553638972;75.684;62.988;31.25;63.477;77.148
1553638972;61.523;54.688;21.484;81.055;64.453
1553638972;105.469;59.57;29.785;78.125;61.523
1553638972;105.957;63.965;38.086;76.66;74.219
1553638972;44.434;74.707;32.715;119.141;85.449
1553638972;73.73;66.895;28.32;90.82;73.242
1553638972;76.172;45.898;29.297;34.668;60.059
1553638972;51.27;48.34;26.855;29.785;54.688
1553638972;70.312;53.711;24.902;31.25;54.199
1553638972;86.426;51.758;29.297;58.105;64.453
1553638972;46.875;50.781;21.484;74.219;48.34
1553638972;53.711;50.781;7.324;56.641;59.082
1553638972;74.707;47.363;17.578;50.781;78.613
1553638972;64.941;48.34;36.621;48.34;58.105
1553638972;53.711;52.734;32.227;44.922;42.969
1553638972;18.066;58.594;23.438;46.387;37.109
1553638972;37.109;66.406;30.762;55.664;25.879
1553638972;54.199;45.41;35.156;87.891;35.645
1553638972;56.641;46.875;23.438;84.961;40.527
1553638972;30.762;59.082;31.25;72.754;32.227
1553638972;57.129;50.781;38.574;44.434;42.969
1553638972;111.328;48.34;34.668;46.875;62.988
1553638972;77.148;41.504;39.062;70.801;68.848
1553638972;28.32;45.41;37.109;22.949;55.664
1553638972;39.062;54.199;28.32;24.902;48.828
1553638972;38.574;62.988;23.438;46.875;54.199
1553638972;29.297;56.152;28.32;28.809;43.457
1553638972;54.688;52.734;41.016;37.598;48.828
1553638972;52.246;38.574;47.363;68.848;43.457
1553638972;21.973;43.457;29.785;29.297;24.902
1553638972;8.789;53.223;23.438;6.836;32.227
1553638972;30.762;50.781;32.227;43.457;49.316
1553638972;68.848;43.945;32.227;62.5;49.316
1553638972;51.27;43.457;27.344;41.016;22.949
1553638972;10.254;40.527;27.832;30.762;15.625
1553638972;13.672;28.32;25.391;18.555;10.742
1553638972;-0.488;41.992;22.949;-26.855;-0.488
1553638972;20.996;44.434;33.203;20.508;23.438
1553638972;67.871;43.457;34.18;76.172;52.246
1553638972;57.617;49.805;25.391;56.152;42.969
1553638972;32.715;38.086;25.879;28.32;24.414
1553638972;31.738;31.25;27.832;28.32;25.391
1553638972;28.809;37.109;34.668;31.25;20.508
1553638972;-19.043;44.922;33.203;19.043;5.859
1553638972;4.883;45.898;25.391;24.902;9.766
1553638972;68.848;42.969;32.227;40.039;33.203
1553638972;64.453;41.504;41.992;51.758;41.016
1553638972;54.688;53.711;37.598;57.129;32.715
1553638972;45.898;56.641;28.809;46.387;34.668
1553638972;14.16;59.082;32.227;36.621;31.738
1553638972;4.883;51.27;31.25;24.902;20.996
1553638972;27.832;34.18;24.414;12.207;17.578
1553638972;15.137;44.922;26.367;11.719;15.625
1553638972;-7.812;44.922;35.645;17.09;24.902
1553638972;-5.371;43.945;39.551;32.715;32.715
1553638972;14.648;47.852;39.551;41.992;30.273
1553638972;46.875;46.387;35.156;34.18;24.414
1553638972;32.715;40.527;33.203;11.23;22.461
1553638972;51.758;37.109;41.992;39.062;21.973
1553638972;33.691;30.762;43.945;72.266;28.809
1553638972;24.902;43.945;29.297;26.855;33.203
1553638972;65.918;55.664;17.09;3.418;17.578
1553638972;-13.184;34.668;23.438;7.812;5.371
1553638972;-36.621;27.344;34.668;17.09;16.113
1553638972;-0.977;21.973;42.48;32.715;29.785
1553638972;22.461;26.367;42.969;12.207;33.203
1553638972;34.18;39.062;36.133;13.672;23.926
1553638972;-3.418;47.852;33.203;36.621;10.742
1553638972;13.672;63.965;36.133;76.172;35.156
1553638972;70.312;68.359;27.344;99.121;75.684
1553638972;50.781;57.617;32.227;68.359;51.758
1553638972;18.555;39.551;38.086;18.066;-7.812
1553638972;-14.16;32.715;34.668;-17.09;-9.766
1553638972;-8.789;39.062;38.086;-22.461;9.277
1553638972;6.836;43.945;38.574;-3.418;0.977
1553638972;23.926;43.945;37.598;-0.488;0.488
1553638972;-32.227;44.434;22.949;-29.297;-17.09
1553638972;-56.152;43.457;18.066;-56.152;-43.945
1553638972;-71.777;20.996;24.414;-87.891;-57.129
1553638972;-119.629;20.996;4.883;-72.266;-57.617
1553638972;-56.641;34.18;-5.859;-36.133;-58.594
1553638972;-18.555;21.484;11.719;-16.602;-52.734
1553638972;-45.41;29.297;22.461;-16.113;-29.785
1553638972;-84.473;34.668;17.09;-53.223;-41.016
1553638972;-65.918;2.441;22.949;-65.918;-53.223
1553638972;-39.551;3.906;26.367;-55.176;-47.363
1553638972;-1.465;37.598;19.043;-41.504;-35.645
1553638972;-16.113;37.598;19.043;7.324;-27.832
1553638972;-29.785;29.297;20.02;18.555;-30.762
1553638972;-10.254;33.691;22.461;-15.625;-12.695
1553638972;19.043;37.598;24.414;-19.531;2.93
1553638972;30.273;36.133;27.344;-14.16;3.418
1553638972;-41.992;35.156;27.832;-10.254;0
1553638972;-39.551;49.805;18.555;-22.461;4.883
1553638972;0;44.434;20.996;-19.043;6.348
1553638972;8.789;30.762;30.762;10.742;25.391
1553638972;28.809;34.668;38.574;29.785;37.598
1553638972;31.738;37.598;34.668;49.316;20.996
1553638972;17.09;44.434;24.902;52.734;21.973
1553638972;26.367;43.457;27.344;9.766;39.551
1553638972;47.852;45.41;35.645;0.977;47.852
1553638972;29.785;39.551;40.039;34.18;41.992
1553638972;-3.418;31.738;26.367;29.785;31.25
1553638972;36.133;40.039;20.996;27.832;40.527
1553638972;36.621;38.086;33.203;19.531;38.086
1553638972;0;36.133;29.297;13.672;29.785
1553638972;26.367;34.668;24.414;31.25;39.551
1553638972;25.879;30.273;31.25;24.414;50.293
1553638972;30.273;39.551;28.32;17.09;46.387
1553638972;44.434;41.992;20.996;20.996;35.156
1553638972;20.508;41.016;26.367;12.207;43.945
1553638972;50.293;48.828;35.156;17.09;53.711
1553638972;65.43;52.734;37.598;49.805;64.453
1553638972;64.941;48.828;31.738;72.754;69.336
1553638972;56.641;41.992;28.32;77.148;45.898
1553638972;41.992;40.039;31.25;42.969;29.785
1553638972;32.715;37.109;22.949;-5.371;31.25
1553638972;46.875;41.992;20.996;-5.371;37.109
1553638972;68.848;35.645;32.715;39.551;44.922
1553638972;55.176;24.414;37.598;65.918;61.523
1553638972;15.625;46.875;31.25;67.383;54.199
1553638972;19.043;55.176;25.879;47.852;42.969
1553638972;30.762;33.691;32.715;36.133;49.805
1553638972;60.059;43.457;49.805;34.18;53.223
1553638972;71.777;61.035;41.992;36.621;42.48
1553638972;30.273;72.754;14.648;32.715;36.621
1553638972;41.504;55.176;20.02;26.855;34.18
1553638972;48.828;34.668;36.621;61.523;26.367
1553638972;32.227;46.875;31.738;63.477;36.133
1553638972;41.992;53.711;30.273;10.742;43.457
1553638972;24.902;58.594;32.227;27.832;35.645
1553638972;27.344;64.453;23.438;59.082;40.527
1553638972;36.133;65.918;14.648;60.547;47.363
1553638972;50.781;42.969;36.133;60.547;47.363
1553638972;51.27;48.828;43.945;33.691;57.617
1553638972;-3.418;58.594;24.414;18.555;27.832
1553638972;-2.441;56.152;22.461;17.09;28.809
1553638972;58.105;59.082;27.344;16.602;49.316
1553638972;50.293;43.945;38.574;37.598;42.969
1553638972;42.969;47.852;45.898;67.871;50.781
1553638972;75.195;64.453;36.133;49.805;47.363
1553638972;64.941;69.824;30.273;46.875;41.016
1553638972;-3.418;68.848;25.391;43.457;32.227
1553638972;8.301;59.57;31.738;10.742;30.762
1553638972;36.621;46.875;35.645;17.09;23.438
1553638972;39.551;51.27;29.785;13.672;21.973
1553638972;16.602;54.688;40.527;18.555;38.086
1553638972;21.973;47.852;49.805;41.992;43.457
1553638972;16.602;60.547;39.062;46.875;33.691
1553638972;-9.277;63.965;33.691;11.719;18.066
1553638972;52.734;60.059;47.363;11.23;15.625
1553638972;25.879;59.082;38.086;18.066;19.531
1553638972;-40.527;50.293;31.25;8.301;13.672
1553638972;29.785;65.918;41.504;26.367;33.203
1553638972;67.383;62.988;41.504;50.293;48.34
1553638972;14.648;49.805;38.086;7.324;21.973
1553638972;-2.441;65.918;31.25;6.836;33.203
1553638972;76.172;62.988;39.062;54.199;72.754
1553638972;82.031;56.152;46.387;50.781;48.34
1553638972;30.762;62.5;49.805;34.668;18.555
1553638972;35.156;52.246;50.293;30.762;26.367
1553638972;24.414;31.738;53.223;39.551;36.133
1553638972;13.184;24.414;45.898;28.809;33.691
1553638972;59.57;43.457;34.18;69.824;53.711
1553638972;83.984;45.41;34.668;87.891;53.223
1553638972;36.133;24.414;38.574;49.316;38.086
1553638972;55.176;13.672;41.992;42.48;58.594
1553638972;96.68;16.602;36.621;83.008;83.008
1553638972;74.707;10.742;38.574;102.539;90.332
1553638972;60.059;10.254;42.969;82.52;79.59
1553638972;72.266;10.254;46.875;70.801;90.332
1553638972;98.633;0;49.805;105.469;108.398
1553638972;105.957;13.672;35.645;104.98;96.191
1553638972;91.309;8.301;34.668;79.102;82.031
1553638972;78.613;0;38.086;85.449;74.219
1553638972;93.262;9.277;37.109;115.723;76.172
1553638972;56.152;-5.371;36.133;106.445;65.43
1553638972;21.973;-9.277;35.645;43.945;46.875
1553638972;63.477;-0.488;42.48;72.754;64.453
1553638972;103.516;1.465;39.062;92.285;77.637
1553638972;87.402;8.301;33.203;72.266;66.406
1553638972;56.641;9.277;35.156;81.055;66.406
1553638972;51.758;5.859;30.273;80.566;54.688
1553638972;58.594;15.625;31.25;73.73;55.664
1553638972;81.055;10.254;35.156;81.055;66.406
1553638972;81.543;-1.465;29.785;82.031;68.848
1553638972;78.613;2.93;29.785;88.867;71.777
1553638972;54.688;5.371;29.785;74.219;43.945
1553638972;8.301;11.719;25.879;59.082;30.273
1553638972;35.156;19.531;27.344;62.012;57.617
1553638973;44.922;17.09;29.785;55.664;69.336
1553638973;51.758;15.625;27.832;60.547;64.941
1553638973;56.152;22.461;32.715;75.684;64.453
1553638973;48.828;25.879;37.109;75.195;54.688
1553638973;61.035;23.926;35.645;78.613;54.688
1553638973;47.852;21.973;26.367;47.363;54.199
1553638973;37.109;20.996;19.043;29.785;56.152
1553638973;67.871;20.02;29.297;53.711;60.059
1553638973;70.312;18.066;36.133;61.523;48.34
1553638973;35.156;18.066;39.062;78.613;46.387
1553638973;28.809;33.691;27.832;77.148;32.227
1553638973;25.391;28.809;14.16;38.086;35.156
1553638973;29.785;14.648;20.996;45.898;53.223
1553638973;48.828;16.602;26.367;22.461;41.504
1553638973;59.57;22.949;15.137;12.695;30.762
1553638973;50.781;22.949;13.184;48.34;35.156
1553638973;37.109;17.09;20.996;26.367;41.016
1553638973;25.391;11.719;17.09;13.672;33.691
1553638973;8.789;11.23;16.602;27.344;25.391
1553638973;26.855;20.996;19.531;42.969;37.598
1553638973;46.875;17.578;20.02;55.664;51.27
1553638973;30.762;18.555;21.484;36.621;50.293
1553638973;27.832;15.137;23.926;49.805;40.527
1553638973;30.273;13.672;14.648;40.527;37.598
1553638973;20.02;15.137;16.113;39.062;37.109
1553638973;38.574;10.254;29.785;52.246;39.551
1553638973;41.504;2.441;27.832;25.879;38.574
1553638973;22.949;1.953;21.484;41.016;46.387
1553638973;41.992;7.324;15.625;30.273;53.711
1553638973;36.621;5.859;13.184;5.371;35.156
1553638973;9.766;4.395;16.602;17.09;16.113
1553638973;36.621;9.766;13.672;24.902;22.949
1553638973;60.059;19.531;20.996;69.336;45.41
1553638973;19.531;-0.977;23.926;73.242;39.062
1553638973;0.977;-7.812;14.648;34.18;29.297
1553638973;10.742;9.766;14.16;19.043;40.039
1553638973;41.504;7.324;22.461;38.086;56.641
1553638973;68.848;6.836;25.391;56.641;64.941
1553638973;61.523;9.277;27.832;31.738;67.383
1553638973;52.246;18.066;24.414;14.648;49.316
1553638973;43.457;18.066;15.137;21.973;39.062
1553638973;15.137;7.812;19.531;23.438;41.016
1553638973;-14.648;0.977;30.273;17.09;32.227
1553638973;7.812;-7.324;31.25;32.227;26.367
1553638973;28.809;-11.23;32.715;42.969;31.738
1553638973;38.086;-5.371;33.203;71.289;65.918
1553638973;48.34;-7.812;32.227;71.289;56.641
1553638973;11.23;-25.879;33.691;15.137;5.859
1553638973;-28.809;-39.551;37.598;-1.953;-3.906
1553638973;-22.461;-30.273;31.738;6.836;6.836
1553638973;-2.93;-32.227;20.996;41.992;31.25
1553638973;35.645;-38.086;25.879;51.758;39.551
1553638973;44.922;-25.391;29.297;47.852;27.344
1553638973;54.199;-18.066;25.879;56.641;37.109
1553638973;31.738;-16.113;22.949;44.922;41.504
1553638973;7.324;-29.785;21.484;1.465;21.484
1553638973;14.16;-23.926;21.484;7.324;11.23
1553638973;0.488;-16.602;20.02;53.711;13.184
1553638973;-4.395;-20.508;20.02;53.711;20.02
1553638973;18.066;-8.789;20.02;30.762;32.227
1553638973;46.875;-5.371;27.344;40.039;41.016
1553638973;21.973;-12.695;31.738;47.852;46.875
1553638973;36.133;-16.113;27.344;28.809;46.387
1553638973;25.391;-13.672;20.508;48.828;23.438
1553638973;-4.883;-0.488;20.02;35.645;7.812
1553638973;17.578;-3.418;25.879;8.789;23.926
1553638973;15.625;-17.09;26.367;38.086;25.879
1553638973;22.949;-5.859;25.391;32.227;20.02
1553638973;44.434;3.906;28.809;48.34;41.504
1553638973;21.973;-0.977;34.18;52.734;49.316
1553638973;1.465;-8.301;33.203;19.043;37.598
1553638973;38.086;4.395;30.273;22.949;33.203
1553638973;25.879;10.742;35.156;54.688;41.016
1553638973;17.09;-3.418;37.598;101.562;51.27
1553638973;38.574;2.93;34.18;71.289;54.688
1553638973;37.109;8.789;30.762;23.926;46.875
1553638973;39.062;3.906;25.391;23.926;44.434
1553638973;38.086;8.301;26.367;21.973;51.27
1553638973;38.574;11.23;26.367;5.859;50.781
1553638973;36.621;10.254;23.438;-4.395;35.156
1553638973;41.016;13.184;22.949;41.016;27.832
1553638973;36.621;18.066;23.438;36.621;47.363
1553638973;35.645;15.137;24.902;24.414;53.223
1553638973;23.438;8.301;24.902;53.223;42.48
1553638973;14.648;4.395;23.438;49.316;41.016
1553638973;48.34;13.184;18.555;50.293;33.691
1553638973;44.434;20.508;19.531;41.016;28.809
1553638973;15.137;22.461;21.973;2.93;37.598
1553638973;10.254;8.789;24.902;7.324;33.691
1553638973;11.719;0;27.344;41.992;32.227
1553638973;43.457;13.184;27.344;63.965;43.457
1553638973;47.363;20.02;23.438;76.66;50.781
1553638973;17.578;17.09;15.137;57.617;50.293
1553638973;44.922;14.648;17.09;53.223;42.969
1553638973;22.461;10.254;21.973;43.945;20.996
1553638973;-12.207;23.926;21.973;23.438;17.578
1553638973;26.367;26.367;24.414;64.941;37.109
1553638973;65.43;9.277;23.926;63.477;42.48
1553638973;49.316;22.461;26.367;45.41;41.016
1553638973;27.832;28.809;37.109;55.176;44.922
1553638973;32.715;28.32;34.668;54.688;45.41
1553638973;38.086;27.344;26.367;44.434;42.969
1553638973;21.973;34.18;20.996;46.387;41.504
1553638973;16.602;29.297;21.973;55.664;42.969
1553638973;35.156;31.25;26.855;61.523;48.34
1553638973;33.203;31.738;27.832;81.055;50.781
1553638973;33.203;30.273;32.715;98.145;41.992
1553638973;53.223;34.668;33.691;81.055;29.297
1553638973;67.383;34.668;31.25;45.41;25.879
1553638973;50.781;30.762;34.18;42.48;29.785
1553638973;20.996;36.621;35.156;49.805;43.945
1553638973;11.23;33.691;31.25;62.012;42.48
1553638973;57.129;35.156;26.855;70.801;48.34
1553638973;37.109;42.969;26.367;45.41;45.898
1553638973;10.254;31.25;34.18;34.18;32.715
1553638973;33.203;36.133;36.621;27.832;28.809
1553638973;15.625;34.18;32.715;16.602;11.719
1553638973;26.367;37.109;30.273;47.363;20.508
1553638973;46.875;42.48;29.297;72.754;35.645
1553638973;38.574;44.434;24.902;56.641;37.109
1553638973;26.367;50.293;19.531;35.645;28.809
1553638973;1.465;43.945;20.996;44.434;25.879
1553638973;7.324;30.273;24.414;55.664;41.504
1553638973;52.246;29.297;28.809;55.664;50.293
1553638973;44.434;32.715;35.156;59.57;35.645
1553638973;30.762;41.016;28.809;38.574;25.879
1553638973;31.738;51.27;22.461;7.812;36.621
1553638973;24.414;50.781;23.438;9.277;36.621
1553638973;3.418;53.711;24.902;28.32;24.414
1553638973;11.719;48.34;29.785;40.527;22.949
1553638973;45.41;29.785;30.273;46.387;36.621
1553638973;25.879;24.902;24.414;41.504;37.109
1553638973;12.695;45.898;20.996;35.645;31.25
1553638973;61.035;51.758;23.438;41.016;27.832
1553638973;78.613;43.945;25.879;44.922;19.043
1553638973;32.227;37.598;25.879;58.105;16.113
1553638973;20.508;36.621;23.926;29.785;24.902
1553638973;14.648;40.527;25.879;10.742;26.367
1553638973;-13.184;37.109;29.297;22.461;18.066
1553638973;17.09;41.992;20.02;10.742;21.973
1553638973;37.598;47.363;16.602;22.461;38.086
1553638973;34.18;41.992;29.297;37.598;41.504
1553638973;44.922;35.156;31.25;51.758;32.227
1553638973;13.184;40.527;20.508;28.809;29.297
1553638973;29.785;44.434;15.137;0;32.715
1553638973;78.613;38.086;23.438;5.859;35.645
1553638973;12.207;38.086;32.227;18.066;32.715
1553638973;9.277;34.668;33.203;40.527;27.344
1553638973;29.785;38.574;28.809;10.254;22.461
1553638973;-8.789;37.109;30.762;-4.395;25.879
1553638973;-3.906;29.785;28.809;3.418;32.227
1553638973;25.879;29.785;15.137;9.277;40.527
1553638973;29.785;30.762;18.066;57.617;35.645
1553638973;36.133;34.18;26.367;50.293;39.551
1553638973;44.922;33.203;29.297;18.066;50.781
1553638973;56.641;33.203;30.273;38.574;64.941
1553638973;50.293;37.598;31.25;58.105;85.938
1553638973;34.18;36.621;34.668;41.992;62.012
1553638973;41.992;37.109;32.715;13.184;30.762
1553638973;46.387;32.715;33.691;22.949;38.086
1553638973;44.922;26.855;38.086;45.898;50.293
1553638973;65.43;30.762;36.621;47.363;44.434
1553638973;56.152;26.855;38.574;48.34;55.176
1553638973;38.086;22.461;39.551;51.758;62.5
1553638973;40.527;22.461;43.457;71.289;52.246
1553638973;52.734;27.832;43.945;79.59;51.758
1553638973;42.48;26.855;40.527;54.688;49.316
1553638973;22.461;19.043;43.945;34.668;45.898
1553638973;43.457;23.438;44.922;23.926;53.223
1553638973;50.293;18.555;45.41;18.066;49.316
1553638973;55.664;14.648;43.945;24.902;31.738
1553638973;38.574;21.973;39.062;25.879;26.367
1553638973;46.387;26.855;41.504;33.203;31.738
1553638973;59.57;22.461;44.434;20.02;32.227
1553638973;13.672;23.926;43.945;10.742;34.668
1553638973;23.438;23.926;41.504;23.438;40.527
1553638973;40.039;21.973;39.062;33.691;48.34
1553638973;41.016;22.949;40.039;48.828;45.41
1553638973;36.133;20.996;40.039;42.48;48.828
1553638973;29.297;20.02;39.551;38.574;50.293
1553638973;33.203;25.391;43.457;33.691;36.133
1553638973;44.922;28.809;41.992;28.809;35.645
1553638973;45.41;27.832;38.574;22.949;39.551
1553638973;28.32;27.832;40.039;8.789;49.316
1553638973;40.527;28.32;39.551;13.672;49.805
1553638973;56.641;28.32;38.574;22.949;49.805
1553638973;47.852;25.391;41.504;28.32;55.176
1553638973;41.504;22.461;41.504;31.738;57.617
1553638973;26.367;24.414;38.086;16.113;50.293
1553638973;24.902;26.367;36.621;21.484;44.922
1553638973;27.832;27.344;37.598;28.809;44.434
1553638973;37.598;24.902;37.598;20.02;38.574
1553638973;37.109;25.391;33.691;24.902;37.109
1553638973;26.855;23.438;30.273;20.508;36.133
1553638973;33.691;21.973;32.227;-3.906;22.461
1553638973;15.137;23.926;41.016;4.883;24.414
1553638973;18.066;16.602;39.551;26.367;26.367
1553638973;31.738;16.602;31.738;8.789;22.461
1553638973;9.277;20.996;32.715;-12.207;14.16
1553638973;19.531;20.508;36.621;25.391;14.16
1553638973;46.387;22.949;35.156;35.645;14.16
1553638973;25.879;24.902;34.18;13.184;4.395
1553638973;4.395;20.02;38.086;12.207;12.207
1553638973;1.465;12.207;36.621;7.812;18.066
1553638973;-6.348;16.602;30.273;9.766;18.555
1553638973;-8.301;19.531;22.461;-3.418;8.301
1553638973;15.137;12.695;21.484;-0.488;7.812
1553638973;18.555;17.578;25.391;-4.883;12.695
1553638973;23.438;12.695;30.762;-3.906;11.23
1553638973;36.133;8.301;33.691;8.789;17.578
1553638973;22.461;10.742;35.645;11.23;25.879
1553638973;18.555;12.207;40.039;12.695;20.02
1553638973;14.16;11.23;38.574;8.301;10.254
1553638973;16.602;9.277;38.086;8.789;10.254
1553638973;7.812;8.789;36.133;8.789;6.836
1553638973;0.488;7.324;31.738;6.836;6.348
1553638973;17.09;5.371;30.762;22.461;13.184
1553638973;8.301;3.418;26.855;6.836;6.348
1553638973;4.395;5.859;25.391;-10.254;5.371
1553638973;24.414;5.859;29.785;8.789;15.625
1553638973;6.836;5.371;38.086;-3.906;18.066
1553638973;5.859;5.371;36.621;2.93;29.297
1553638973;57.129;19.531;25.879;62.5;63.965
1553638973;83.984;31.738;32.715;42.48;67.871
1553638973;30.273;18.555;40.527;-21.973;13.672
1553638973;-30.762;11.719;35.156;-0.977;0.488
1553638973;-29.297;-1.953;38.086;17.578;8.789
1553638973;-33.691;-9.766;40.527;-7.324;-6.348
1553638973;-37.598;-13.184;41.504;-14.16;-7.812
1553638973;-22.461;-17.09;38.086;-16.602;-9.766
1553638973;-20.996;-13.184;29.297;-42.48;-16.602
1553638973;-16.113;-17.578;25.391;-42.48;-25.879
1553638973;-9.277;-20.996;28.809;-25.391;-20.508
1553638973;-43.457;-28.809;31.25;-31.25;-13.672
1553638973;-54.688;-48.34;31.738;-34.668;-25.391
1553638973;-19.043;-49.316;27.832;-23.438;-18.066
1553638973;-21.973;-48.828;26.367;-3.418;-21.484
1553638973;-53.223;-49.805;35.156;12.695;-28.32
1553638973;-36.621;-37.598;32.715;4.395;-5.859
1553638973;-36.133;-27.344;24.902;-1.953;-13.184
1553638973;-24.902;-20.996;33.203;23.438;1.465
1553638973;0.977;-15.137;36.133;28.32;27.832
1553638973;1.953;-19.043;35.156;0.977;29.297
1553638973;-0.977;-21.973;38.086;-4.883;18.555
1553638973;2.441;-21.484;39.062;-8.789;0.488
1553638973;1.465;-23.438;46.387;26.367;26.855
1553638973;13.184;-22.461;46.875;53.223;51.27
1553638973;7.324;-21.973;32.715;2.93;7.812
1553638973;-9.277;-20.02;20.996;-21.973;-12.207
1553638973;-11.23;-12.207;21.973;-24.902;1.465
1553638973;0.977;-7.324;30.762;-14.16;20.996
1553638973;0.488;-4.395;32.715;28.32;26.367
1553638973;5.859;-2.441;35.156;36.621;26.367
1553638973;16.602;0;35.156;8.301;33.691
1553638973;20.996;0.488;30.762;-11.719;21.484
1553638973;-8.301;-5.859;32.715;-18.066;13.672
1553638974;-4.883;-7.812;34.668;-14.16;28.32
1553638974;16.113;-8.789;34.18;-7.324;24.902
1553638974;-5.859;-13.184;30.273;-20.508;9.277
1553638974;-38.086;-12.695;21.484;-38.574;2.93
1553638974;-46.875;-17.578;21.973;-48.34;6.836
1553638974;-30.762;-22.949;26.855;-34.668;5.859
1553638974;0.488;-24.902;28.809;-16.602;-6.348
1553638974;-10.742;-39.062;29.297;-7.812;-16.113
1553638974;-33.691;-52.246;27.344;-1.465;-18.066
1553638974;-10.742;-79.59;24.902;-32.227;-17.578
1553638974;-15.625;-132.812;22.461;-55.664;-19.043
1553638974;-30.762;-159.18;26.855;-50.293;-16.113
1553638974;-26.367;-146.973;31.738;-42.969;-3.906
1553638974;-15.625;-124.023;31.25;-32.715;1.465
1553638974;-12.695;-106.934;37.598;-38.086;3.418
1553638974;-3.906;-92.773;42.969;-9.277;13.672
1553638974;7.812;-75.195;39.062;8.301;7.324
1553638974;-11.23;-63.965;42.48;-8.301;-4.395
1553638974;-33.203;-57.617;46.875;-20.996;-8.301
1553638974;-26.367;-48.828;37.109;-18.066;-3.418
1553638974;-17.09;-39.551;34.668;5.859;2.93
1553638974;19.043;-26.855;39.062;20.996;4.395
1553638974;34.18;-26.367;39.062;3.906;3.418
1553638974;-2.441;-25.879;34.18;1.465;-1.465
1553638974;-26.367;-16.113;30.273;-7.812;-4.883
1553638974;-20.02;-14.648;34.668;-27.832;-7.324
1553638974;-27.832;-12.695;28.32;-23.438;-14.16
1553638974;-33.203;-7.812;21.973;-17.578;-8.301
1553638974;-7.812;-2.441;23.438;-9.766;19.043
1553638974;-7.812;2.93;25.391;6.348;13.672
1553638974;-32.227;-0.977;27.832;-23.926;-11.23
1553638974;-20.02;-5.859;24.414;-54.688;-8.301
1553638974;-9.766;-5.859;19.043;-37.109;0.977
1553638974;-19.531;-9.277;15.137;-40.527;-5.859
1553638974;-52.734;-7.324;15.625;-41.504;-12.207
1553638974;-50.781;-0.977;18.555;-26.367;0.977
1553638974;21.973;5.859;19.531;-18.066;9.766
1553638974;15.625;1.465;31.25;0.977;15.137
1553638974;-31.25;-4.883;35.156;11.719;9.766
1553638974;-6.348;1.953;32.227;-15.625;5.371
1553638974;9.766;8.789;31.25;-26.367;10.742
1553638974;52.246;6.836;33.203;6.348;19.531
1553638974;36.133;0.488;40.039;5.859;28.32
1553638974;-7.812;-3.906;40.527;-15.137;28.32
1553638974;-0.488;0;40.039;-7.812;25.391
1553638974;-12.695;2.441;36.621;0.977;24.902
1553638974;-10.254;-1.465;33.691;-1.953;34.18
1553638974;13.672;2.441;31.738;-24.414;38.574
1553638974;2.441;11.719;31.25;-31.738;42.969
1553638974;2.441;11.23;40.527;-4.395;43.457
1553638974;2.93;5.859;39.062;-2.93;39.551
1553638974;6.348;8.789;31.738;-31.25;42.48
1553638974;6.348;10.742;33.691;-21.484;49.316
1553638974;4.883;9.766;35.156;-4.883;51.27
1553638974;12.207;9.766;38.086;20.02;39.062
1553638974;6.348;10.254;39.062;9.766;41.992
1553638974;-11.23;9.766;39.551;-9.277;49.316
1553638974;-20.02;5.859;42.969;19.531;40.527
1553638974;-23.926;2.93;46.875;39.062;31.738
1553638974;-2.93;8.301;44.922;16.602;55.664
1553638974;16.602;12.207;31.25;2.441;53.711
1553638974;-19.531;6.348;34.18;28.32;47.852
1553638974;12.695;6.836;46.387;27.344;48.828
1553638974;8.789;12.695;46.387;-4.883;38.086
1553638974;-10.254;-3.418;44.434;5.859;37.109
1553638974;-8.301;-14.648;42.48;9.277;36.133
1553638974;-46.875;-14.648;38.086;5.859;44.434
1553638974;-34.668;-16.602;33.203;6.836;57.129
1553638974;-1.465;-19.043;36.133;25.391;42.969
1553638974;7.812;-31.738;40.527;43.457;32.715
1553638974;-2.441;-42.48;35.645;18.555;39.062
1553638974;13.672;-40.527;35.156;33.691;32.715
1553638974;37.109;-37.109;37.109;43.457;30.762
1553638974;17.578;-43.945;38.086;32.227;30.762
1553638974;25.391;-44.434;37.109;35.156;43.457
1553638974;49.805;-36.621;34.668;31.25;52.246
1553638974;50.781;-38.574;32.715;20.02;50.781
1553638974;14.648;-54.688;33.203;34.668;66.895
1553638974;18.066;-48.34;33.203;42.48;64.941
1553638974;6.836;-37.598;38.574;36.133;55.176
1553638974;5.859;-36.621;43.457;51.27;54.688
1553638974;8.789;-25.391;41.016;61.035;45.898
1553638974;24.414;-20.02;29.297;55.176;47.852
1553638974;50.293;-13.672;23.926;51.27;42.48
1553638974;70.312;-13.672;35.156;53.223;27.832
1553638974;59.082;-20.508;43.457;74.219;35.645
1553638974;5.371;-20.508;45.898;66.406;36.621
1553638974;47.363;-15.137;46.875;56.641;41.504
1553638974;91.797;-4.883;44.434;79.59;36.133
1553638974;56.152;0.488;41.504;87.891;39.062
1553638974;64.453;2.441;41.504;66.895;36.621
1553638974;97.168;0.488;40.039;57.129;33.691
1553638974;61.035;-8.789;40.527;37.598;45.898
1553638974;12.695;-5.859;44.434;38.086;52.246
1553638974;-15.137;-2.93;46.387;52.734;65.918
1553638974;7.324;2.441;43.945;34.18;65.43
1553638974;69.336;11.23;41.016;41.504;49.805
1553638974;76.66;11.23;40.527;32.227;60.547
1553638974;81.543;15.625;40.527;48.34;50.781
1553638974;46.875;10.254;44.922;81.543;36.133
1553638974;17.09;4.883;42.48;72.266;49.316
1553638974;89.355;8.301;34.668;55.664;38.574
1553638974;52.734;3.418;35.645;77.637;45.898
1553638974;41.992;0.977;43.457;72.266;49.316
1553638974;67.871;9.766;37.598;31.25;39.551
1553638974;27.832;12.695;28.809;30.762;44.434
1553638974;35.645;10.254;35.645;41.992;41.504
1553638974;33.691;12.695;35.156;21.973;37.598
1553638974;65.918;21.484;37.109;8.301;33.203
1553638974;61.523;22.949;35.156;40.039;35.156
1553638974;25.879;15.137;33.691;53.223;57.129
1553638974;61.035;10.742;44.922;54.688;50.781
1553638974;69.824;18.066;36.621;47.852;31.738
1553638974;37.598;16.602;30.273;38.086;38.086
1553638974;51.27;12.695;43.457;30.273;51.758
1553638974;59.57;18.555;36.133;24.902;37.109
1553638974;38.574;21.973;17.09;27.344;19.531
1553638974;44.434;18.066;23.438;18.555;22.461
1553638974;34.18;14.16;28.32;26.367;29.785
1553638974;15.625;15.137;31.25;41.504;41.016
1553638974;43.457;19.531;36.621;29.297;37.109
1553638974;74.707;24.902;28.32;25.879;22.949
1553638974;63.965;23.438;32.227;12.695;28.809
1553638974;45.41;20.508;34.668;7.812;47.363
1553638974;49.316;21.973;38.574;34.18;33.203
1553638974;15.137;17.09;36.621;39.551;31.738
1553638974;30.762;12.207;31.738;23.438;29.785
1553638974;68.359;23.926;27.344;3.418;26.855
1553638974;49.805;33.203;19.043;2.93;34.668
1553638974;64.941;33.691;26.367;23.926;28.809
1553638974;58.105;28.32;43.945;30.273;22.949
1553638974;34.668;29.297;44.922;2.441;28.32
1553638974;58.105;36.621;41.016;5.859;28.809
1553638974;31.25;37.109;42.48;4.395;18.066
1553638974;26.855;45.41;41.504;11.23;19.531
1553638974;2.93;39.062;46.875;20.508;40.039
1553638974;6.836;33.691;44.922;23.926;49.316
1553638974;48.34;33.203;40.527;22.461;41.016
1553638974;50.293;28.809;41.504;16.602;19.531
1553638974;65.43;34.668;27.344;33.691;24.902
1553638974;52.246;35.156;28.809;31.25;30.273
1553638974;10.254;33.691;37.109;23.438;32.715
1553638974;11.719;26.367;33.691;12.207;32.227
1553638974;44.922;28.809;26.367;-1.953;22.949
1553638974;29.297;34.18;33.691;14.648;26.855
1553638974;8.789;25.879;35.645;14.648;31.738
1553638974;33.691;25.391;34.18;5.859;21.484
1553638974;49.805;28.32;28.809;24.414;20.996
1553638974;51.27;28.32;21.484;54.199;29.785
1553638974;39.062;26.855;35.645;42.969;37.598
1553638974;34.668;25.391;44.922;27.832;33.691
1553638974;40.527;22.949;44.434;10.254;24.902
1553638974;37.598;25.391;40.527;-8.301;27.344
1553638974;-12.207;20.508;40.039;-15.625;49.316
1553638974;-16.113;16.602;39.062;6.348;59.082
1553638974;45.41;19.531;56.152;26.855;15.137
1553638974;62.988;19.531;48.34;31.738;2.441
1553638974;45.898;24.902;28.809;35.156;24.902
1553638974;41.016;28.32;31.25;18.555;23.926
1553638974;40.039;34.18;24.414;20.996;19.531
1553638974;50.781;30.762;42.969;20.508;20.02
1553638974;46.387;25.879;48.34;21.973;21.484
1553638974;50.781;30.762;38.086;33.203;21.973
1553638974;47.852;26.367;37.598;37.598;22.461
1553638974;0.977;20.02;34.18;41.504;32.227
1553638974;-3.906;20.02;41.016;5.859;48.828
1553638974;51.27;20.508;43.457;-12.695;57.129
1553638974;67.383;31.25;37.109;44.922;40.039
1553638974;87.891;47.852;23.438;45.898;20.02
1553638974;85.938;44.434;23.926;18.066;21.973
1553638974;75.195;42.48;31.738;21.484;33.691
1553638974;77.637;43.457;31.738;35.645;33.691
1553638974;62.012;36.621;48.34;25.879;21.484
1553638974;46.387;36.621;54.199;8.301;17.578
1553638974;35.156;41.992;33.203;28.809;37.109
1553638974;51.758;45.898;27.344;17.09;35.645
1553638974;24.902;40.039;33.691;12.207;30.762
1553638974;36.133;38.574;31.25;47.363;32.715
1553638974;66.895;41.504;23.926;18.066;22.949
1553638974;56.152;37.598;27.344;-17.09;25.879
1553638974;58.594;42.48;22.949;8.301;27.344
1553638974;17.09;40.039;16.602;32.715;26.367
1553638974;5.371;36.133;17.09;32.715;20.02
1553638974;55.664;43.457;37.109;60.059;31.25
1553638974;75.684;53.223;47.363;50.781;33.203
1553638974;74.219;60.547;27.832;12.695;20.02
1553638974;43.457;53.223;27.832;-2.441;25.391
1553638974;25.391;45.41;44.434;-4.883;39.062
1553638974;20.996;32.715;47.852;-14.648;38.574
1553638974;-7.812;35.156;39.551;-22.949;21.484
1553638974;15.625;56.152;15.625;-5.859;34.18
1553638974;81.543;50.781;13.672;37.109;35.645
1553638974;74.707;48.34;21.973;70.312;10.254
1553638974;74.219;51.758;34.18;81.543;9.277
1553638974;75.195;49.316;51.27;51.27;16.113
1553638974;26.855;44.922;38.086;50.781;30.762
1553638974;34.668;45.898;26.855;44.922;33.691
1553638974;40.039;51.27;14.648;35.156;33.203
1553638974;27.832;39.551;25.879;62.5;33.203
1553638974;29.785;39.551;42.969;60.059;24.902
1553638974;53.711;48.34;45.41;60.059;26.855
1553638974;77.637;53.711;45.41;32.715;20.996
1553638974;77.637;62.988;20.508;60.547;28.809
1553638974;51.27;52.246;22.949;66.406;39.062
1553638974;32.715;47.852;38.086;38.086;37.109
1553638974;42.969;47.852;40.527;63.477;19.043
1553638974;69.824;54.199;8.789;55.176;6.348
1553638974;30.762;47.852;13.184;30.273;21.973
1553638974;9.766;41.016;36.621;53.223;39.551
1553638974;69.336;48.34;28.809;64.453;23.438
1553638974;80.566;43.457;50.293;23.438;5.859
1553638974;33.691;45.898;43.457;38.086;37.598
1553638974;41.504;55.664;15.625;76.172;50.293
1553638974;55.664;51.758;28.32;48.828;19.043
1553638974;24.414;45.898;43.457;59.57;13.184
1553638974;5.371;38.086;41.992;59.57;21.973
1553638974;19.531;42.969;31.738;62.5;17.578
1553638974;50.293;56.152;34.18;67.383;12.207
1553638974;74.707;62.988;27.344;61.035;14.648
1553638974;18.066;48.34;16.113;6.836;30.273
1553638974;-15.137;44.922;20.508;-25.879;48.828
1553638974;19.531;54.199;27.344;26.855;36.621
1553638974;63.477;50.293;25.879;83.008;28.809
1553638974;45.41;50.781;39.551;66.406;21.973
1553638974;16.113;53.711;26.855;23.438;41.504
