timestamps;TP9;AF7;AF8;TP10;Right AUX
1553639734;-13.672;23.926;30.762;14.648;19.531
1553639734;4.395;20.996;33.203;10.742;22.461
1553639734;6.836;23.926;35.645;8.789;27.832
1553639734;11.719;26.367;33.203;20.508;28.809
1553639734;13.184;22.461;27.832;21.484;33.203
1553639734;22.949;26.367;27.344;14.16;35.156
1553639734;30.273;28.32;30.273;1.953;27.344
1553639734;6.836;26.367;33.203;3.906;30.762
1553639734;-7.812;27.344;32.227;11.23;38.574
1553639734;1.465;20.996;30.762;13.672;41.504
1553639734;3.906;18.066;30.273;16.602;40.527
1553639734;15.625;22.949;28.809;20.996;38.574
1553639734;35.645;27.832;26.367;34.668;43.945
1553639734;15.625;29.297;28.809;41.992;51.27
1553639734;9.277;25.391;35.645;42.969;52.734
1553639734;16.113;22.461;36.133;47.363;47.363
1553639734;18.555;20.508;32.715;52.734;46.387
1553639734;28.32;24.902;29.297;47.363;53.711
1553639734;19.043;25.879;28.809;36.621;57.617
1553639734;25.391;20.996;31.738;36.621;51.27
1553639734;30.273;20.02;29.297;43.457;54.199
1553639734;38.086;20.02;30.273;45.898;60.059
1553639734;49.316;22.949;32.227;62.5;57.129
1553639734;41.504;22.461;33.203;65.43;52.246
1553639734;29.785;22.461;35.156;42.48;51.27
1553639734;43.945;26.855;24.902;39.062;53.223
1553639734;31.738;25.879;23.438;38.574;54.688
1553639734;23.438;24.902;32.227;43.457;47.852
1553639734;25.879;24.902;24.414;55.664;37.109
1553639734;21.484;29.785;24.414;49.805;38.574
1553639734;15.137;31.25;32.715;38.086;43.457
1553639734;11.719;27.344;33.203;37.598;39.551
1553639734;18.555;24.902;33.691;55.664;34.668
1553639734;20.996;24.902;36.133;68.848;29.785
1553639734;20.02;27.832;30.273;56.641;33.691
1553639734;18.066;33.691;31.738;42.969;38.086
1553639734;10.742;36.133;40.039;39.551;27.344
1553639734;18.066;33.203;40.039;31.25;25.879
1553639734;18.555;32.227;39.551;22.949;35.156
1553639734;12.207;33.691;39.062;27.832;34.18
1553639734;17.578;32.227;33.203;23.438;25.879
1553639734;21.484;28.809;30.273;32.715;25.879
1553639734;28.32;29.297;30.762;43.457;27.832
1553639734;16.602;32.227;26.855;39.062;25.879
1553639734;14.648;29.785;27.344;40.039;20.996
1553639734;32.715;32.227;31.738;40.527;18.066
1553639734;28.809;34.668;29.785;27.344;15.137
1553639734;20.996;30.273;29.297;24.414;17.09
1553639734;26.367;31.25;35.156;40.527;23.926
1553639734;28.809;34.668;32.227;51.758;20.996
1553639734;24.414;29.785;26.367;41.992;24.414
1553639734;20.508;27.832;29.297;32.227;34.668
1553639734;15.137;33.203;35.156;45.898;38.086
1553639734;24.414;38.086;38.086;45.898;34.18
1553639734;34.668;37.109;38.574;30.762;29.297
1553639734;26.855;34.668;35.156;32.715;31.25
1553639734;24.414;35.645;37.598;38.574;28.809
1553639734;10.742;37.598;42.48;40.039;25.391
1553639734;26.855;38.086;40.039;52.734;38.086
1553639734;50.293;36.621;34.18;51.758;41.016
1553639734;14.16;31.25;38.086;27.832;17.578
1553639734;-6.836;23.926;38.574;17.09;-0.488
1553639734;5.859;19.043;34.18;22.949;4.883
1553639734;26.855;16.602;35.645;30.273;14.16
1553639734;35.645;18.066;35.645;31.738;17.578
1553639734;17.578;20.508;37.109;29.297;22.949
1553639734;20.996;18.555;40.039;35.156;27.344
1553639734;19.531;20.02;34.18;35.156;28.809
1553639734;17.09;19.043;22.461;29.785;35.645
1553639734;32.227;19.531;27.832;32.227;38.574
1553639734;37.598;21.973;35.645;45.898;29.785
1553639734;42.969;20.508;39.062;45.898;25.879
1553639734;40.527;22.949;37.598;32.227;25.879
1553639734;34.668;23.438;35.156;48.34;26.367
1553639734;21.484;23.926;34.668;47.363;25.879
1553639734;14.648;22.461;29.297;23.926;22.461
1553639734;21.484;19.531;29.785;21.484;22.461
1553639734;28.32;26.367;35.156;22.949;31.25
1553639734;41.016;28.809;36.621;28.809;35.156
1553639734;39.062;25.879;33.203;34.18;33.691
1553639734;30.762;25.879;31.738;41.992;34.668
1553639734;22.461;27.832;35.156;24.902;39.062
1553639734;32.227;30.762;37.598;20.996;41.504
1553639734;32.715;34.18;37.109;36.133;38.086
1553639734;37.598;35.156;37.109;30.762;38.574
1553639734;41.992;36.133;38.574;35.156;38.574
1553639734;35.156;35.156;37.598;38.086;40.039
1553639734;29.785;33.203;36.621;35.645;38.574
1553639734;53.711;29.297;34.18;53.223;37.598
1553639734;50.781;30.273;29.785;55.664;36.133
1553639734;16.602;31.738;29.785;42.48;33.203
1553639734;11.719;29.785;29.297;31.25;28.809
1553639734;8.301;28.32;29.297;16.113;25.879
1553639734;21.484;25.879;27.832;24.902;26.855
1553639734;26.855;23.438;27.344;40.039;31.738
1553639734;27.344;23.926;33.691;37.109;28.809
1553639734;33.691;25.391;31.25;37.109;25.391
1553639734;42.48;26.855;27.344;33.203;28.32
1553639734;27.344;27.832;26.367;28.809;34.18
1553639734;27.832;25.391;26.367;43.457;39.062
1553639734;30.762;24.902;29.785;57.617;34.668
1553639734;17.578;24.414;24.414;49.805;32.227
1553639734;37.598;24.902;21.973;47.363;37.598
1553639734;28.32;22.461;32.227;36.621;41.504
1553639734;24.414;25.879;36.621;25.879;33.203
1553639734;41.016;29.785;32.227;39.062;26.855
1553639734;26.367;30.762;31.25;48.828;28.32
1553639734;18.066;30.762;25.879;37.598;26.855
1553639735;22.949;28.809;20.02;25.879;19.531
1553639735;24.414;28.809;24.414;29.785;14.16
1553639735;21.973;25.879;30.273;27.832;16.113
1553639735;30.273;29.297;31.25;33.203;24.414
1553639735;36.621;32.715;28.32;38.574;21.973
1553639735;31.25;28.32;27.344;37.109;18.066
1553639735;16.602;23.926;26.367;42.48;22.949
1553639735;13.672;24.902;28.32;41.504;28.809
1553639735;36.133;30.762;30.273;37.109;31.738
1553639735;40.039;36.621;31.25;38.086;24.902
1553639735;15.137;36.133;32.227;32.227;24.902
1553639735;20.996;35.645;27.344;26.367;29.785
1553639735;38.574;36.621;30.273;26.855;28.32
1553639735;31.25;32.227;37.109;31.738;22.949
1553639735;12.695;29.785;38.574;49.316;21.973
1553639735;2.441;30.273;34.18;63.477;26.855
1553639735;13.184;30.762;26.855;43.945;37.109
1553639735;19.043;29.297;37.598;20.508;43.457
1553639735;20.02;28.809;42.969;19.043;37.109
1553639735;22.461;31.25;32.227;9.277;31.25
1553639735;10.254;31.25;36.621;19.531;34.668
1553639735;17.09;26.367;45.898;38.574;32.715
1553639735;20.02;21.484;41.992;38.574;26.855
1553639735;16.113;20.02;40.527;44.922;34.18
1553639735;17.09;22.949;42.48;44.922;33.691
1553639735;29.785;25.879;37.109;29.297;33.203
1553639735;50.293;27.832;26.367;35.156;30.273
1553639735;35.645;27.832;27.344;42.48;26.855
1553639735;21.973;25.879;32.715;35.156;31.738
1553639735;29.297;27.832;33.691;29.297;33.203
1553639735;36.621;30.762;29.785;32.715;42.969
1553639735;60.059;32.227;27.832;39.551;61.035
1553639735;32.715;30.273;36.621;41.016;42.969
1553639735;-15.625;27.832;41.504;33.691;19.043
1553639735;-14.648;28.32;35.645;22.949;11.23
1553639735;-5.371;24.902;31.25;29.297;10.254
1553639735;1.465;19.531;30.762;31.25;9.766
1553639735;-18.555;14.648;28.809;6.348;1.465
1553639735;-20.508;7.812;33.203;2.441;3.906
1553639735;-15.625;2.93;40.527;5.371;-2.441
1553639735;-26.367;3.418;35.645;-11.719;-18.555
1553639735;-29.785;4.883;33.203;-9.766;-11.719
1553639735;-31.738;4.883;37.109;-0.977;-0.488
1553639735;-33.691;5.371;34.668;-13.184;-21.484
1553639735;-48.34;3.418;27.832;0;-23.926
1553639735;-26.367;1.465;25.391;18.066;-4.395
1553639735;-1.953;8.301;22.949;20.02;0
1553639735;-19.531;10.742;24.414;9.277;-2.93
1553639735;-29.297;8.301;28.32;-2.441;0
1553639735;-20.508;7.324;28.32;2.441;2.93
1553639735;-7.812;10.254;29.297;10.742;14.648
1553639735;5.371;15.625;27.344;21.484;23.926
1553639735;19.043;17.578;29.297;14.16;18.555
1553639735;4.395;16.602;28.809;12.207;20.508
1553639735;-6.348;12.207;21.973;14.648;27.832
1553639735;11.719;13.184;26.855;14.16;28.32
1553639735;29.785;17.578;30.762;28.32;28.32
1553639735;30.273;16.602;25.391;31.738;32.715
1553639735;18.066;20.02;31.738;30.762;32.227
1553639735;24.414;18.066;37.598;22.949;32.227
1553639735;17.09;13.184;42.48;29.297;30.273
1553639735;14.16;13.672;46.387;51.27;30.762
1553639735;27.344;18.555;43.945;52.246;36.133
1553639735;16.602;22.949;37.598;41.504;42.48
1553639735;7.324;20.996;32.227;33.203;34.668
1553639735;9.277;18.066;25.879;20.996;27.344
1553639735;30.273;20.996;24.414;17.578;33.203
1553639735;31.738;24.414;25.879;22.461;38.086
1553639735;6.348;21.973;24.902;22.949;31.738
1553639735;16.113;19.043;26.855;30.762;25.879
1553639735;35.645;20.996;23.926;35.645;29.785
1553639735;34.668;22.461;28.809;40.039;35.156
1553639735;26.367;25.391;32.227;44.922;30.762
1553639735;24.414;28.32;27.344;30.273;28.32
1553639735;30.273;26.855;24.902;23.438;26.855
1553639735;26.855;24.414;32.227;28.809;20.996
1553639735;17.578;22.949;28.809;27.832;25.391
1553639735;45.41;25.391;28.809;35.645;31.25
1553639735;60.059;28.809;35.645;42.969;28.32
1553639735;19.043;29.785;33.203;36.621;28.809
1553639735;0.488;24.902;38.086;18.555;31.738
1553639735;19.531;22.949;38.086;14.648;26.367
1553639735;27.832;26.855;29.785;18.555;23.438
1553639735;19.531;28.32;27.344;15.625;26.367
1553639735;20.508;26.367;26.855;17.09;28.32
1553639735;15.137;26.367;24.414;21.484;25.879
1553639735;24.902;24.902;28.809;26.367;23.438
1553639735;40.527;24.902;27.344;27.344;24.414
1553639735;15.625;27.832;22.949;26.855;24.414
1553639735;7.324;24.414;26.367;22.461;24.414
1553639735;13.184;19.531;22.949;26.367;20.508
1553639735;16.113;20.996;19.043;30.762;19.531
1553639735;29.785;25.879;29.297;22.461;23.926
1553639735;29.297;26.367;33.691;19.043;24.902
1553639735;32.715;24.414;24.902;28.32;27.832
1553639735;38.086;28.32;22.461;29.785;28.809
1553639735;34.18;30.273;21.973;17.578;23.926
1553639735;23.926;27.344;20.508;24.902;26.855
1553639735;13.184;24.414;22.949;33.203;28.32
1553639735;17.09;26.367;27.344;33.203;23.926
1553639735;17.578;27.832;28.32;31.738;26.855
1553639735;23.926;22.949;24.902;29.785;31.25
1553639735;30.273;23.438;23.438;34.18;32.227
1553639735;44.922;29.785;15.625;29.785;27.832
1553639735;26.855;27.344;0;23.438;23.926
1553639735;0;17.578;19.531;24.902;27.344
1553639735;2.93;17.578;47.852;23.926;27.832
1553639735;25.879;25.879;43.945;25.879;27.832
1553639735;41.504;33.203;34.18;31.25;30.273
1553639735;16.113;35.645;34.668;35.156;31.25
1553639735;12.207;31.25;35.645;32.715;34.18
1553639735;24.902;28.32;32.227;29.785;30.762
1553639735;30.273;28.32;25.391;25.879;26.367
1553639735;17.578;31.738;21.973;14.648;28.32
1553639735;13.184;34.668;23.926;17.09;37.598
1553639735;20.02;34.668;24.414;21.484;38.086
1553639735;16.602;34.18;22.949;31.738;34.18
1553639735;35.156;37.109;20.508;31.25;37.109
1553639735;27.832;38.574;13.672;19.531;35.645
1553639735;3.418;37.598;4.883;23.926;41.016
1553639735;19.043;40.527;6.348;27.832;34.668
1553639735;48.34;39.062;9.277;37.598;41.016
1553639735;66.895;46.387;12.695;53.223;70.801
1553639735;34.18;51.758;37.109;41.016;52.246
1553639735;11.719;41.016;50.293;18.066;23.926
1553639735;20.02;31.738;48.34;3.418;22.949
1553639735;12.695;26.855;35.156;-7.812;23.926
1553639735;-3.418;25.391;20.508;-8.301;22.949
1553639735;-27.832;22.949;-4.883;-12.207;-2.93
1553639735;-41.016;20.996;-31.25;-29.785;-26.367
1553639735;-42.48;27.344;6.348;-25.879;-27.344
1553639735;-56.152;25.391;30.762;-38.574;-42.969
1553639735;-61.035;12.207;20.508;-47.363;-42.48
1553639735;-56.152;10.742;38.574;-40.527;-29.297
1553639735;-58.594;15.625;45.898;-48.828;-47.363
1553639735;-61.523;20.996;29.297;-40.039;-45.898
1553639735;-56.152;27.344;23.438;-32.227;-31.25
1553639735;-38.574;36.133;23.926;-32.715;-24.902
1553639735;-40.039;38.574;19.043;-29.785;-21.484
1553639735;-21.973;37.598;18.555;-13.672;-10.742
1553639735;-2.441;39.551;16.113;-2.93;5.371
1553639735;-22.461;39.551;11.23;-3.906;5.371
1553639735;-28.32;32.227;16.113;5.371;3.418
1553639735;-1.953;32.227;26.367;12.207;16.602
1553639735;5.859;34.18;30.273;9.277;21.484
1553639735;1.465;34.18;27.832;15.625;16.113
1553639735;5.371;35.156;26.367;13.672;15.625
1553639735;5.859;30.273;25.391;16.113;20.508
1553639735;15.137;29.785;24.414;13.672;28.809
1553639735;1.953;29.785;21.484;9.766;25.879
1553639735;0.977;28.32;17.09;11.23;20.508
1553639735;2.93;26.855;18.066;5.859;24.414
1553639735;10.742;27.344;12.207;14.16;32.715
1553639735;17.578;27.344;8.789;24.902;35.156
1553639735;8.301;26.367;22.949;24.414;31.25
1553639735;14.16;30.762;25.879;20.996;30.762
1553639735;16.602;31.738;20.02;20.02;31.25
1553639735;13.672;30.273;18.066;23.926;34.668
1553639735;10.254;27.344;21.484;34.18;39.551
1553639735;10.742;27.832;29.297;35.645;39.062
1553639735;20.508;33.691;32.227;32.227;42.969
1553639735;22.461;35.156;32.715;32.227;43.945
1553639735;17.09;34.18;35.645;30.273;37.598
1553639735;18.555;32.227;33.203;24.414;34.18
1553639735;27.344;29.297;30.273;30.273;37.109
1553639735;27.344;28.32;32.715;35.645;40.039
1553639735;20.508;30.762;32.227;27.832;36.621
1553639735;35.156;35.156;27.344;31.738;31.25
1553639735;35.156;38.086;23.438;39.551;24.414
1553639735;2.93;35.156;25.391;31.25;22.461
1553639735;11.719;28.809;25.879;21.484;28.32
1553639735;19.531;28.32;21.973;19.531;27.344
1553639735;17.09;34.18;27.832;32.227;21.973
1553639735;21.484;31.738;31.738;29.785;19.531
1553639735;23.438;26.855;23.926;26.367;21.973
1553639735;29.785;28.32;22.461;33.203;18.555
1553639735;33.203;29.297;27.832;21.973;23.438
1553639735;32.227;30.273;28.809;19.531;28.32
1553639735;17.578;29.785;30.762;38.086;29.785
1553639735;15.137;29.297;31.738;33.691;32.227
1553639735;22.949;28.809;9.277;26.855;33.203
1553639735;26.367;24.414;10.254;31.738;31.25
1553639735;26.855;24.414;46.387;40.527;34.18
1553639735;20.508;26.855;47.852;40.527;29.785
1553639735;14.16;26.855;33.203;29.785;17.578
1553639735;13.672;27.344;36.621;26.367;20.996
1553639735;20.508;27.832;39.062;36.621;38.086
1553639735;22.949;28.32;40.039;36.621;44.434
1553639735;28.32;27.832;31.738;31.25;28.32
1553639735;12.207;26.855;25.879;36.621;17.578
1553639735;10.742;26.367;28.32;39.551;18.555
1553639735;18.066;26.855;35.645;38.574;23.926
1553639735;8.301;27.832;42.969;37.109;27.832
1553639735;12.207;27.832;42.969;47.852;30.273
1553639735;19.043;27.344;35.156;45.41;30.762
1553639735;13.672;28.32;21.484;32.715;34.668
1553639735;13.184;20.996;22.461;32.715;33.691
1553639735;11.23;20.996;30.273;35.645;22.949
1553639735;2.93;36.133;31.738;34.18;20.996
1553639735;4.883;37.598;33.203;26.367;20.996
1553639735;9.277;32.227;36.621;23.926;24.414
1553639735;13.672;31.738;33.203;27.832;26.855
1553639735;10.742;31.25;34.668;21.484;19.043
1553639735;7.324;30.762;42.969;22.461;21.484
1553639735;2.93;28.32;44.922;26.367;29.297
1553639735;-6.836;27.832;41.504;26.855;24.414
1553639735;-5.371;30.273;38.574;30.273;22.461
1553639735;3.906;29.297;36.621;36.133;32.715
1553639735;17.578;28.809;35.156;31.25;36.133
1553639735;7.324;29.785;34.668;34.18;33.203
1553639735;3.418;32.227;33.203;45.41;30.762
1553639735;3.418;32.227;29.785;37.598;25.391
1553639735;-0.488;31.738;22.461;24.414;20.508
1553639735;-2.441;36.133;10.742;26.855;23.926
1553639735;-9.766;32.227;12.207;26.855;21.484
1553639735;-2.93;20.996;43.945;24.414;28.32
1553639735;1.465;20.508;52.246;26.855;34.668
1553639735;-6.836;28.809;35.645;30.273;37.109
1553639735;-2.93;32.715;46.387;28.809;37.598
1553639735;-0.488;38.574;49.805;35.645;30.762
1553639735;5.859;45.41;38.086;50.781;36.133
1553639735;10.742;38.574;36.621;37.598;39.551
1553639735;4.395;36.621;32.227;26.855;37.109
1553639735;2.441;37.109;25.879;25.879;32.715
1553639735;8.301;32.227;36.133;27.344;36.621
1553639735;21.973;37.109;42.969;54.199;50.781
1553639735;20.996;41.992;44.434;54.688;50.293
1553639735;16.113;37.109;40.039;44.434;48.34
1553639735;18.555;32.227;37.598;44.922;52.246
1553639735;10.742;32.227;37.109;36.133;51.27
1553639735;-7.812;32.715;34.18;32.227;42.969
1553639735;-4.395;33.203;32.715;43.457;42.969
1553639735;4.395;31.738;35.156;42.48;40.039
1553639735;4.395;32.715;33.691;25.879;40.039
1553639735;2.93;35.156;25.391;26.367;42.48
1553639735;-5.859;35.645;26.855;19.531;25.391
1553639735;-10.254;27.832;32.227;20.508;15.625
1553639735;-16.602;20.996;35.156;24.902;9.277
1553639735;-22.949;24.414;34.668;6.836;2.441
1553639735;-19.043;24.414;36.621;-6.836;-3.418
1553639735;-26.367;22.949;40.039;-8.301;-6.348
1553639735;-25.391;27.344;39.551;-4.395;-9.766
1553639735;-27.832;26.367;44.434;-12.695;-10.742
1553639735;-35.645;26.367;50.293;-3.418;0
1553639735;-29.785;36.133;48.34;5.371;-1.953
1553639735;-40.039;36.621;41.016;-25.391;-27.832
1553639735;-64.941;31.738;40.527;-44.434;-41.992
1553639735;-59.082;36.133;43.457;-46.387;-45.41
1553639735;-49.316;49.316;41.992;-50.781;-54.688
1553639735;-66.895;54.688;43.457;-48.34;-62.012
1553639735;-73.242;53.223;48.828;-52.734;-66.406
1553639735;-70.312;63.477;52.246;-64.453;-77.637
1553639735;-93.262;70.312;48.34;-84.961;-98.633
1553639735;-117.676;68.848;48.34;-96.68;-107.91
1553639735;-116.211;75.195;53.711;-101.074;-104.004
1553639735;-113.77;77.637;55.176;-111.816;-108.887
1553639736;-116.211;80.078;59.57;-117.676;-126.953
1553639736;-127.93;86.914;61.035;-125.977;-146.973
1553639736;-130.371;89.355;58.594;-142.09;-147.949
1553639736;-114.746;95.215;56.641;-155.273;-139.16
1553639736;-130.859;99.609;56.641;-154.785;-141.602
1553639736;-135.742;98.633;58.105;-149.414;-139.648
1553639736;-126.465;102.051;62.012;-145.02;-135.254
1553639736;-124.023;103.516;63.965;-145.02;-134.766
1553639736;-132.812;104.98;61.523;-137.695;-128.418
1553639736;-130.371;108.398;62.012;-123.535;-122.07
1553639736;-123.047;108.887;61.035;-128.906;-123.535
1553639736;-135.254;111.816;56.641;-125.977;-113.281
1553639736;-116.699;110.84;54.199;-110.84;-91.797
1553639736;-97.656;111.328;54.688;-103.027;-85.449
1553639736;-95.215;114.746;54.688;-107.422;-87.891
1553639736;-106.445;113.281;53.223;-125.977;-95.215
1553639736;-95.703;116.211;52.246;-120.117;-95.215
1553639736;-84.473;116.211;50.781;-113.77;-79.102
1553639736;-86.426;114.746;51.758;-96.68;-68.848
1553639736;-89.355;115.234;50.293;-67.871;-65.918
1553639736;-85.938;113.77;49.805;-75.684;-53.711
1553639736;-75.684;115.723;52.246;-80.566;-44.922
1553639736;-81.055;114.258;52.734;-91.309;-53.223
1553639736;-80.566;113.281;53.711;-98.145;-63.477
1553639736;-77.637;119.629;47.363;-63.965;-53.223
1553639736;-74.219;123.535;43.945;-47.363;-40.527
1553639736;-65.918;121.582;42.969;-66.895;-52.246
1553639736;-70.801;124.023;41.016;-74.219;-51.758
1553639736;-57.129;125.977;37.109;-65.918;-37.109
1553639736;-41.504;118.652;35.156;-56.152;-32.227
1553639736;-59.57;120.117;40.039;-53.223;-39.551
1553639736;-66.406;120.605;37.598;-65.43;-47.852
1553639736;-54.199;117.188;32.227;-51.27;-33.691
1553639736;-38.574;117.676;36.133;-20.02;-12.207
1553639736;-35.645;113.281;39.551;-30.762;-22.461
1553639736;-53.223;113.281;37.109;-60.059;-41.016
1553639736;-48.34;115.723;35.156;-59.57;-37.109
1553639736;-26.855;114.258;40.039;-46.875;-35.645
1553639736;-31.25;116.211;41.504;-40.527;-39.551
1553639736;-42.969;112.793;38.086;-45.41;-46.387
1553639736;-52.734;103.516;33.203;-32.715;-45.898
1553639736;-41.016;98.633;33.203;-17.09;-35.645
1553639736;-33.203;95.215;37.598;-26.367;-41.016
1553639736;-54.199;93.262;37.109;-48.34;-62.012
1553639736;-70.801;94.238;36.621;-64.941;-77.148
1553639736;-44.434;89.355;35.645;-53.223;-62.988
1553639736;-16.113;82.52;31.738;-32.715;-37.109
1553639736;-22.461;82.52;30.762;-42.48;-40.039
1553639736;-25.391;85.938;31.738;-46.875;-59.57
1553639736;-26.367;84.961;30.273;-36.621;-66.406
1553639736;-33.691;83.008;29.297;-41.992;-56.152
1553639736;-20.508;78.613;29.785;-51.27;-42.969
1553639736;-7.812;75.195;29.785;-51.27;-42.48
1553639736;-18.066;80.566;31.25;-34.668;-37.109
1553639736;-20.508;79.102;35.156;-21.484;-33.691
1553639736;-23.438;69.824;33.691;-16.602;-44.434
1553639736;-36.621;66.895;29.297;-34.18;-56.152
1553639736;-20.02;66.895;26.855;-49.805;-53.223
1553639736;-4.883;68.848;29.785;-33.691;-34.668
1553639736;-12.695;63.477;32.715;-20.508;-23.438
1553639736;-23.438;62.012;33.691;-22.949;-34.668
1553639736;-15.625;62.5;31.25;-45.41;-40.039
1553639736;-16.113;57.129;31.25;-56.641;-38.086
1553639736;-25.391;60.059;30.762;-38.086;-28.809
1553639736;-10.742;62.5;29.785;-24.902;-17.09
1553639736;0.488;57.617;33.691;-17.578;-9.766
1553639736;-12.695;53.223;37.109;-19.531;-1.465
1553639736;-13.184;54.688;34.18;8.789;-0.977
1553639736;29.297;56.641;31.25;31.738;-8.301
1553639736;20.02;56.641;33.203;-8.301;-7.324
1553639736;-23.438;59.57;28.32;-34.668;13.184
1553639736;-20.508;55.664;24.902;-24.414;33.691
1553639736;-15.137;48.828;30.762;-14.16;39.062
1553639736;-15.137;41.016;40.039;-1.953;33.203
1553639736;-8.789;37.109;41.016;-17.578;18.555
1553639736;-18.555;41.504;41.992;-24.414;16.113
1553639736;-12.695;47.363;43.457;-7.324;22.461
1553639736;-9.766;49.805;40.527;-6.348;18.555
1553639736;-10.254;50.293;41.016;3.418;20.02
1553639736;-3.418;47.852;39.062;14.648;28.809
1553639736;8.301;44.922;36.621;13.184;39.551
1553639736;21.484;47.363;35.156;11.23;34.668
1553639736;-0.488;44.434;35.156;15.137;19.531
1553639736;-7.812;40.039;34.668;29.297;19.531
1553639736;15.137;38.574;35.156;34.18;39.062
1553639736;14.648;39.551;38.086;37.598;40.527
1553639736;4.883;41.504;39.551;24.414;9.766
1553639736;7.324;42.48;37.109;0;8.789
1553639736;20.02;43.457;31.738;9.766;29.785
1553639736;20.508;40.527;34.668;21.484;30.273
1553639736;-3.906;35.645;38.574;20.02;8.789
1553639736;-17.578;35.645;38.574;15.137;-7.812
1553639736;-14.648;38.574;35.645;17.09;-6.836
1553639736;-5.859;38.086;32.227;18.066;-1.953
1553639736;3.418;39.062;33.203;23.926;1.465
1553639736;11.719;39.551;29.297;30.762;16.113
1553639736;14.16;31.738;32.227;31.738;31.738
1553639736;-0.488;29.785;38.574;9.277;15.137
1553639736;-20.02;35.645;35.645;-7.324;-10.742
1553639736;-12.695;36.133;31.25;15.137;-3.906
1553639736;5.371;33.203;33.203;20.996;5.371
1553639736;4.395;34.668;36.133;12.695;3.418
1553639736;-0.488;37.598;33.691;11.719;0.488
1553639736;22.949;35.156;33.203;26.367;-6.836
1553639736;31.25;33.203;33.691;40.039;-11.23
1553639736;4.395;31.738;37.598;22.461;-13.672
1553639736;-19.531;27.344;39.062;-0.977;-8.301
1553639736;-13.184;20.996;36.621;-7.812;-4.883
1553639736;0.977;20.508;39.062;-3.418;-19.531
1553639736;-14.648;23.438;38.086;-9.277;-39.551
1553639736;-27.344;24.902;33.691;-22.461;-43.457
1553639736;-9.766;28.32;30.762;-28.32;-39.062
1553639736;3.906;32.227;29.785;-15.137;-25.879
1553639736;0.977;29.297;27.344;-0.977;-13.184
1553639736;14.648;25.391;23.926;11.719;-3.418
1553639736;13.184;25.879;26.855;10.742;3.418
1553639736;-11.23;22.461;33.691;16.602;1.953
1553639736;-4.395;19.531;38.574;23.926;10.742
1553639736;11.719;16.113;42.48;26.855;28.809
1553639736;11.23;14.16;42.48;41.016;32.715
1553639736;5.371;15.625;39.551;15.625;11.719
1553639736;3.906;20.508;35.645;-12.207;0
1553639736;-1.953;23.926;29.785;-9.277;-0.488
1553639736;-10.254;26.367;25.391;-19.531;0.977
1553639736;-8.301;26.855;24.902;-20.508;7.812
1553639736;-9.277;23.438;27.344;-8.301;8.789
1553639736;-10.742;25.879;26.855;0;11.719
1553639736;-1.953;30.273;24.414;5.859;21.973
1553639736;-3.906;29.297;25.391;21.484;25.879
1553639736;-9.766;27.344;26.855;51.27;22.949
1553639736;0;20.996;26.855;56.152;36.133
1553639736;-1.465;18.555;31.25;31.738;56.152
1553639736;-7.324;22.461;34.18;8.301;59.57
1553639736;5.859;21.484;28.809;2.93;58.594
1553639736;15.625;18.066;29.297;15.625;61.035
1553639736;22.949;15.625;33.203;26.367;67.871
1553639736;17.09;15.625;27.832;34.18;75.195
1553639736;9.766;18.066;27.832;50.781;72.266
1553639736;15.625;15.137;36.621;68.359;67.871
1553639736;23.926;9.766;37.109;56.152;67.871
1553639736;22.949;13.672;36.621;37.109;70.801
1553639736;24.902;17.578;41.504;36.133;65.43
1553639736;35.156;14.648;45.898;51.758;65.43
1553639736;24.414;14.16;47.852;46.387;55.176
1553639736;-0.977;21.484;42.48;29.297;35.156
1553639736;-4.883;23.926;39.551;45.898;35.645
1553639736;21.484;20.508;35.156;64.941;39.062
1553639736;23.438;20.02;31.25;59.082;37.109
1553639736;15.137;18.555;35.645;54.199;36.621
1553639736;5.859;18.066;37.109;42.969;33.203
1553639736;1.953;17.09;36.621;29.785;31.738
1553639736;12.695;13.672;40.527;38.086;34.18
1553639736;23.438;18.066;42.48;48.828;41.504
1553639736;9.766;23.438;41.992;52.734;31.25
1553639736;2.93;26.367;39.551;43.457;8.789
1553639736;20.508;30.762;33.691;42.48;14.16
1553639736;25.879;35.645;30.273;40.039;20.996
1553639736;7.324;29.785;36.133;33.203;9.766
1553639736;-1.953;20.508;43.457;26.855;2.93
1553639736;-0.977;19.531;45.898;24.902;-3.906
1553639736;4.883;24.414;39.062;28.32;-10.254
1553639736;2.93;24.902;33.691;27.832;-9.277
1553639736;-10.742;21.484;39.062;25.391;-10.742
1553639736;3.418;16.113;44.922;47.852;-3.906
1553639736;15.137;13.184;41.992;39.062;2.93
1553639736;11.719;17.578;35.156;-1.465;-0.977
1553639736;8.301;20.996;31.25;6.836;-2.93
1553639736;8.789;24.414;27.832;6.836;-3.906
1553639736;-1.953;24.902;26.367;-11.23;-2.441
1553639736;-6.348;20.996;32.227;-8.301;4.883
1553639736;4.883;17.09;38.086;12.695;2.441
1553639736;-2.93;17.09;37.598;19.043;-5.859
1553639736;5.371;15.137;35.645;0.977;-6.348
1553639736;16.602;14.16;36.621;-1.953;0
1553639736;9.277;14.648;35.156;-1.953;0.488
1553639736;-3.418;13.184;33.691;-2.93;-16.113
1553639736;-4.395;16.113;34.18;1.465;-25.879
1553639736;-11.23;16.602;29.785;5.371;-15.137
1553639736;-19.043;15.137;33.691;11.719;-1.953
1553639736;-8.789;15.137;37.109;20.02;2.441
1553639736;2.441;18.555;34.668;21.484;11.23
1553639736;9.766;25.879;36.621;23.438;31.738
1553639736;10.742;25.879;38.086;16.113;46.875
1553639736;11.23;21.484;35.156;22.949;50.293
1553639736;14.648;24.414;30.273;32.715;54.688
1553639736;26.367;27.344;25.879;13.672;54.199
1553639736;14.648;24.902;26.855;0.488;38.574
1553639736;5.859;18.066;35.156;13.184;32.715
1553639736;22.949;13.672;42.969;27.832;41.992
1553639736;22.461;16.602;41.016;31.738;37.109
1553639736;-2.93;22.461;31.738;18.555;21.484
1553639736;6.348;24.414;27.832;13.184;21.973
1553639736;23.438;28.32;28.32;23.438;25.391
1553639736;11.719;28.809;26.855;25.391;19.531
1553639736;7.812;25.391;29.785;38.086;20.996
1553639736;14.648;24.414;31.25;40.039;34.668
1553639736;15.137;24.902;28.809;18.066;35.645
1553639736;5.371;25.391;26.367;13.184;39.062
1553639736;13.672;30.273;27.344;46.387;61.035
1553639736;20.02;32.715;30.762;50.781;78.125
1553639736;20.996;26.367;32.227;40.039;84.473
1553639736;6.836;23.926;30.762;51.27;84.473
1553639736;10.254;21.973;32.715;46.875;87.891
1553639736;30.273;21.484;32.715;41.504;92.285
1553639736;33.691;23.438;33.203;53.711;91.309
1553639736;31.738;25.391;38.574;70.801;81.543
1553639736;37.598;24.902;41.016;64.453;81.543
1553639736;35.645;24.414;40.527;50.293;78.613
1553639736;20.02;27.344;36.133;52.246;60.547
1553639736;17.09;26.367;29.785;62.012;39.062
1553639736;32.715;25.879;29.785;57.129;32.715
1553639736;31.738;28.809;32.227;48.34;42.48
1553639736;4.395;30.273;31.25;44.434;41.016
1553639736;9.766;32.227;24.902;35.645;33.203
1553639736;30.762;33.691;20.508;44.922;34.18
1553639736;21.484;33.691;23.438;48.828;29.297
1553639736;16.602;29.297;25.391;31.25;22.461
1553639736;37.598;24.902;29.297;41.016;23.438
1553639736;35.156;23.438;31.738;48.34;22.461
1553639736;25.391;22.949;31.25;35.156;20.02
1553639736;14.16;21.484;33.203;31.738;23.438
1553639736;4.395;20.996;33.691;39.062;20.996
1553639736;15.625;26.367;33.203;26.367;-2.441
1553639736;25.879;29.785;28.32;11.23;-18.066
1553639736;14.648;33.691;25.879;20.996;-7.812
1553639736;12.695;34.668;28.32;24.414;7.812
1553639736;22.949;32.715;31.25;40.527;9.766
1553639736;32.227;28.809;34.18;50.781;8.301
1553639736;33.691;29.297;37.109;19.043;17.09
1553639736;30.762;31.738;42.48;11.719;23.926
1553639736;29.297;31.25;37.109;6.348;11.23
1553639736;21.973;35.645;29.297;-17.578;-8.301
1553639736;10.254;33.203;27.832;-22.461;-9.277
1553639736;16.113;30.273;24.902;-13.184;4.395
1553639736;17.578;36.133;25.879;4.395;14.16
1553639736;5.859;34.18;27.832;13.672;19.531
1553639736;5.859;25.391;29.785;2.93;20.508
1553639736;-10.254;29.297;33.203;7.324;17.578
1553639736;1.465;32.715;32.715;37.109;29.785
1553639736;19.043;25.879;31.738;34.18;37.109
1553639736;16.602;26.367;31.738;18.066;40.527
1553639736;28.809;26.855;29.297;22.461;58.105
1553639736;32.227;22.949;31.738;32.227;73.242
1553639736;35.156;26.367;31.738;38.086;69.336
1553639736;23.926;27.344;27.832;37.109;46.875
1553639736;17.578;26.855;28.809;29.297;33.203
1553639736;29.297;24.902;28.809;35.645;32.227
1553639736;27.832;25.879;25.879;37.598;28.809
1553639736;17.578;26.367;27.344;27.832;27.832
1553639736;14.648;20.508;34.18;41.504;38.574
1553639736;19.531;21.484;32.715;44.922;56.152
1553639736;21.484;24.902;27.832;22.461;58.594
1553639736;23.926;29.297;31.25;47.363;60.059
1553639736;30.273;31.25;30.762;63.477;69.336
1553639736;37.598;29.297;29.297;52.734;71.777
1553639736;28.809;24.902;32.227;50.293;66.895
1553639737;12.207;21.973;35.156;35.156;63.477
1553639737;16.602;20.996;37.109;38.574;63.965
1553639737;22.461;20.02;34.18;45.898;59.082
1553639737;29.297;22.461;31.25;45.898;49.805
1553639737;14.648;25.391;35.156;48.34;31.25
1553639737;12.207;23.926;40.527;50.293;18.555
1553639737;39.062;20.508;40.527;52.246;24.414
1553639737;44.922;21.973;39.062;40.527;16.113
1553639737;41.016;24.414;37.598;35.156;18.555
1553639737;28.32;26.367;35.645;47.363;29.785
1553639737;34.668;29.297;35.156;56.641;30.273
1553639737;42.48;30.273;29.785;62.988;41.016
1553639737;33.203;30.273;28.32;81.055;46.387
1553639737;38.086;30.762;28.809;77.148;36.621
1553639737;34.668;28.809;31.25;41.992;22.949
1553639737;35.645;22.461;36.133;38.086;20.508
1553639737;26.855;21.484;35.645;41.992;19.043
1553639737;20.996;22.461;34.18;35.156;16.602
1553639737;37.598;21.484;37.109;32.715;24.414
1553639737;19.043;20.02;38.086;31.738;11.23
1553639737;16.113;24.414;34.18;34.18;-1.953
1553639737;34.668;30.762;27.344;30.273;1.953
1553639737;21.973;35.156;29.297;20.996;0
1553639737;12.695;38.574;34.18;23.926;-3.418
1553639737;13.184;38.086;32.715;11.23;-0.977
1553639737;15.625;37.598;33.691;5.371;-1.465
1553639737;18.555;40.527;34.18;28.32;-4.883
1553639737;28.809;41.504;32.227;52.246;-2.441
1553639737;20.02;41.504;32.227;38.574;8.789
1553639737;3.906;38.086;32.227;16.602;18.066
1553639737;28.32;33.203;34.18;24.414;22.461
1553639737;35.645;33.203;32.227;28.32;19.043
1553639737;27.344;31.738;27.344;24.902;14.648
1553639737;52.246;28.809;25.391;32.715;17.09
1553639737;58.105;32.715;22.949;69.824;21.973
1553639737;27.832;33.691;22.949;50.293;31.738
1553639737;-2.93;34.18;29.297;-0.977;40.527
1553639737;0.977;34.18;26.367;-6.836;44.922
1553639737;14.16;34.668;21.973;8.789;51.758
1553639737;20.996;31.738;29.297;20.02;43.457
1553639737;21.484;25.391;36.621;14.16;25.391
1553639737;3.906;21.973;36.133;26.367;23.926
1553639737;14.648;17.09;35.645;30.273;27.344
1553639737;28.32;17.09;32.715;21.973;26.367
1553639737;18.066;22.461;29.785;23.926;32.227
1553639737;14.16;24.414;27.832;33.691;39.062
1553639737;14.648;25.879;29.785;47.852;43.457
1553639737;18.555;25.879;33.691;59.082;44.922
1553639737;27.832;20.996;34.668;57.617;48.828
1553639737;30.273;18.555;35.645;36.621;57.617
1553639737;36.133;16.113;32.227;24.902;60.547
1553639737;44.434;17.578;29.297;27.344;59.57
1553639737;39.551;24.414;28.32;41.504;54.199
1553639737;34.18;28.32;28.809;40.039;44.434
1553639737;49.316;30.762;27.832;38.086;46.387
1553639737;46.875;29.785;28.809;47.363;45.41
1553639737;20.508;21.973;35.645;51.758;36.621
1553639737;9.766;17.09;38.574;67.871;40.039
1553639737;14.16;15.625;38.574;79.59;40.527
1553639737;7.812;15.625;37.109;50.781;25.879
1553639737;-2.93;20.508;34.18;10.742;6.348
1553639737;14.16;26.367;28.809;20.02;8.301
1553639737;28.809;24.414;28.809;41.992;21.973
1553639737;11.23;20.996;34.18;40.039;27.344
1553639737;3.906;21.484;32.715;31.25;29.785
1553639737;13.184;23.926;28.809;28.32;32.715
1553639737;14.16;25.391;33.203;46.875;33.691
1553639737;29.785;23.438;37.598;66.406;46.875
1553639737;38.574;19.043;36.621;54.688;49.805
1553639737;35.645;19.531;35.645;34.668;35.645
1553639737;24.902;27.832;33.691;29.785;28.809
1553639737;31.738;34.18;33.691;14.16;30.273
1553639737;38.574;34.668;32.227;18.555;29.785
1553639737;39.551;27.832;31.738;31.25;23.438
1553639737;39.062;26.367;35.156;32.227;25.391
1553639737;24.902;32.227;29.785;51.758;32.227
1553639737;20.508;27.832;26.855;44.434;26.855
1553639737;16.602;22.949;36.621;31.738;17.578
1553639737;18.066;19.531;40.039;51.758;13.672
1553639737;22.949;19.043;35.156;27.832;8.301
1553639737;18.555;24.902;33.691;-12.207;-5.371
1553639737;7.324;30.273;35.645;-9.766;-16.602
1553639737;12.695;32.227;30.762;0.488;-11.719
1553639737;23.438;30.762;30.273;16.113;0
1553639737;23.926;29.297;35.645;23.438;14.648
1553639737;21.973;26.855;35.645;16.602;20.996
1553639737;18.555;30.273;32.227;16.113;22.949
1553639737;9.766;34.668;28.32;26.855;26.367
1553639737;13.672;29.297;24.902;20.508;30.273
1553639737;24.414;23.926;25.879;19.043;34.18
1553639737;28.809;18.555;27.832;28.809;38.086
1553639737;28.32;13.672;33.203;24.414;44.434
1553639737;39.551;18.555;30.762;10.742;51.27
1553639737;36.133;28.809;23.438;23.926;52.246
1553639737;18.555;24.414;26.367;49.805;38.574
1553639737;16.113;17.578;37.109;34.668;34.18
1553639737;23.438;16.113;40.527;31.25;35.156
1553639737;23.438;18.555;36.133;43.457;24.414
1553639737;17.09;24.902;32.227;44.434;11.719
1553639737;16.113;23.438;30.273;35.156;2.93
1553639737;24.902;22.461;31.738;23.438;11.23
1553639737;30.273;24.414;28.32;22.949;26.367
1553639737;29.785;20.508;25.879;37.598;41.992
1553639737;38.574;18.555;29.297;31.25;44.434
1553639737;28.809;21.484;32.227;19.043;33.691
1553639737;12.695;16.113;36.133;45.898;45.41
1553639737;26.855;6.348;34.18;60.547;61.523
1553639737;46.387;9.766;23.926;50.781;69.336
1553639737;49.805;15.625;26.367;59.57;61.523
1553639737;40.039;15.137;34.668;64.941;44.922
1553639737;46.387;9.277;37.109;38.574;52.734
1553639737;44.922;4.883;38.574;30.273;54.688
1553639737;54.199;19.531;28.32;51.758;55.664
1553639737;31.25;26.367;27.832;34.668;48.828
1553639737;4.883;15.137;41.016;28.32;27.344
1553639737;27.832;11.23;40.527;46.387;25.879
1553639737;37.109;15.137;38.574;41.504;31.738
1553639737;21.484;17.09;40.527;40.039;33.691
1553639737;25.391;15.625;34.668;58.105;30.273
1553639737;39.062;19.043;32.227;53.223;27.344
1553639737;34.668;24.414;33.691;29.297;27.832
1553639737;27.344;25.879;32.227;23.438;32.715
1553639737;26.855;22.461;33.203;20.508;42.48
1553639737;39.062;15.625;32.227;30.273;51.758
1553639737;36.133;17.578;31.25;44.434;48.828
1553639737;39.062;25.391;24.414;44.922;51.27
1553639737;41.016;25.879;20.508;50.293;61.035
1553639737;27.832;22.461;27.832;49.316;57.129
1553639737;36.621;17.578;33.203;39.062;48.34
1553639737;35.156;13.672;34.668;36.133;45.898
1553639737;34.668;19.043;30.273;46.387;52.246
1553639737;26.855;23.926;31.738;42.969;45.41
1553639737;12.695;18.066;38.574;28.809;25.879
1553639737;22.461;6.836;45.898;48.828;33.691
1553639737;27.832;10.254;45.41;54.688;36.621
1553639737;29.785;21.973;37.598;38.574;19.531
1553639737;25.879;24.902;35.645;28.809;18.555
1553639737;17.09;27.344;32.715;30.762;15.137
1553639737;23.926;31.25;28.32;33.203;17.578
1553639737;33.691;32.227;25.391;30.273;31.738
1553639737;41.016;23.438;26.855;40.039;43.945
1553639737;40.039;16.113;31.738;50.293;52.246
1553639737;49.316;9.766;35.156;52.734;51.27
1553639737;33.203;10.742;35.156;35.156;38.086
1553639737;16.602;16.113;29.785;32.715;33.203
1553639737;27.832;11.719;27.344;47.852;44.922
1553639737;41.504;10.254;30.273;64.453;55.664
1553639737;42.969;16.113;28.32;62.5;40.039
1553639737;37.109;23.926;22.949;41.504;24.414
1553639737;21.973;27.344;21.484;22.949;23.926
1553639737;26.855;28.32;23.438;19.043;23.438
1553639737;33.203;27.832;24.902;29.785;36.133
1553639737;21.484;28.32;28.809;37.598;44.434
1553639737;24.414;27.344;31.738;34.668;31.25
1553639737;26.367;29.297;32.227;40.527;15.137
1553639737;27.344;30.762;26.855;34.18;18.066
1553639737;33.203;28.32;24.902;27.344;31.738
1553639737;33.203;26.855;27.832;41.016;36.621
1553639737;38.086;28.32;22.461;35.645;25.391
1553639737;46.387;34.18;20.508;26.367;25.879
1553639737;57.617;39.062;20.02;51.27;51.27
1553639737;70.312;38.574;17.578;61.523;71.777
1553639737;52.734;31.738;21.973;52.734;72.266
1553639737;44.922;23.438;31.25;64.941;70.312
1553639737;36.133;25.879;35.156;60.547;58.105
1553639737;34.668;31.738;33.691;42.969;37.598
1553639737;43.457;31.25;30.273;32.227;35.645
1553639737;33.203;28.809;25.391;23.438;41.016
1553639737;36.621;28.809;26.855;31.738;45.41
1553639737;42.969;30.273;34.668;55.664;47.852
1553639737;28.32;33.203;35.645;44.922;38.086
1553639737;17.578;39.551;32.227;34.668;26.855
1553639737;28.809;41.016;27.832;65.43;29.297
1553639737;22.949;40.039;31.25;70.312;36.133
1553639737;25.879;36.621;37.109;36.621;41.504
1553639737;31.25;35.156;40.039;22.949;34.668
1553639737;42.48;37.109;37.598;31.25;30.273
1553639737;45.41;35.645;30.762;26.855;28.809
1553639737;12.695;38.086;33.203;32.227;34.668
1553639737;17.578;36.621;32.227;36.133;45.41
1553639737;43.457;31.738;32.227;33.203;37.109
1553639737;33.691;22.949;39.062;51.27;28.809
1553639737;19.531;15.625;44.922;45.898;38.086
1553639737;26.855;21.973;42.48;31.25;37.598
1553639737;32.227;28.809;33.691;27.344;28.32
1553639737;33.203;27.832;35.156;20.996;25.879
1553639737;30.762;28.32;41.016;22.461;30.273
1553639737;26.855;25.879;41.992;37.109;38.574
1553639737;26.367;23.926;38.086;41.504;27.344
1553639737;21.973;28.809;35.645;36.133;18.066
1553639737;28.809;31.738;36.133;41.992;28.32
1553639737;37.598;32.715;33.691;32.227;33.203
1553639737;43.457;30.762;30.273;27.832;31.25
1553639737;26.855;33.203;29.297;42.48;32.715
1553639737;15.625;32.715;30.762;40.527;32.715
1553639737;14.16;24.902;37.598;20.02;26.855
1553639737;9.277;24.414;40.039;31.25;33.203
1553639737;29.297;24.414;37.109;64.453;43.945
1553639737;41.016;26.855;31.738;69.824;40.527
1553639737;41.992;30.762;25.879;56.641;47.363
1553639737;41.016;33.691;24.414;32.715;49.316
1553639737;41.992;31.738;31.25;15.137;45.41
1553639737;36.621;23.926;39.551;23.926;55.664
1553639737;20.996;24.414;42.48;30.762;44.434
1553639737;18.555;30.273;37.109;18.066;23.926
1553639737;28.809;35.156;31.738;25.879;21.973
1553639737;23.438;33.691;30.762;54.199;30.762
1553639737;23.438;28.809;31.738;41.504;33.691
1553639737;24.902;30.762;31.738;39.062;38.086
1553639737;22.949;34.18;28.809;60.059;40.527
1553639737;36.621;37.109;25.391;42.969;45.898
1553639737;47.363;37.109;20.02;31.25;53.711
1553639737;57.617;34.668;16.602;41.504;66.895
1553639737;56.152;31.738;19.531;46.875;64.941
1553639737;38.086;28.32;26.855;57.129;50.781
1553639737;40.527;22.461;29.297;61.035;55.176
1553639737;50.781;19.531;29.785;51.27;64.941
1553639737;41.016;22.949;28.32;62.5;60.547
1553639737;35.645;21.484;28.32;65.918;49.316
1553639737;39.551;17.09;28.809;65.43;46.875
1553639737;42.48;17.578;25.391;55.176;43.457
1553639737;44.922;17.09;27.832;49.805;41.504
1553639737;46.875;11.23;33.203;79.102;39.551
1553639737;34.668;6.836;31.738;69.336;27.344
1553639737;24.902;13.184;31.738;40.527;11.23
1553639737;30.762;20.02;31.25;48.34;12.695
1553639737;30.762;19.531;26.855;48.34;28.809
1553639737;21.973;19.043;27.344;37.598;39.551
1553639737;22.949;19.531;31.25;32.715;33.691
1553639737;27.344;18.066;31.25;33.691;31.25
1553639737;28.32;16.113;32.715;41.992;34.668
1553639737;36.133;15.625;33.691;49.805;25.879
1553639737;32.227;18.066;29.785;56.152;24.902
1553639737;25.391;18.066;28.32;46.387;34.668
1553639737;53.711;18.066;27.832;46.387;41.504
1553639737;61.035;20.508;29.297;65.43;38.086
1553639737;34.668;20.02;31.25;48.34;23.926
1553639737;30.762;19.043;26.855;14.16;20.02
1553639737;20.996;21.484;25.391;23.926;22.949
1553639737;14.648;22.949;26.855;50.781;28.32
1553639737;34.18;20.02;29.297;47.363;38.086
1553639737;41.504;21.484;27.344;25.391;41.016
1553639737;30.273;20.508;24.902;13.672;36.621
1553639737;22.461;20.02;24.414;34.668;41.504
1553639737;24.902;23.438;25.391;54.199;42.969
1553639737;38.574;18.555;30.273;57.129;35.645
1553639737;39.062;17.09;31.25;48.34;38.086
1553639737;33.691;18.555;29.785;42.969;40.039
1553639737;32.227;17.578;26.855;32.715;27.832
1553639737;28.809;19.531;23.438;28.32;20.996
1553639737;33.691;23.438;22.949;39.062;27.832
1553639737;34.18;25.879;26.855;40.039;42.48
1553639737;36.621;24.902;28.32;42.969;38.574
1553639737;27.832;21.973;26.367;50.293;21.484
1553639737;22.461;22.949;26.367;49.316;24.414
1553639737;34.18;28.32;26.367;37.109;38.574
1553639738;49.805;30.273;26.367;25.879;44.922
1553639738;37.109;32.227;28.809;19.043;46.387
1553639738;14.648;30.273;32.227;26.367;46.387
1553639738;21.484;28.32;37.598;36.133;50.781
1553639738;27.832;30.273;37.109;31.738;46.875
1553639738;22.949;30.762;34.18;42.969;42.969
1553639738;40.527;26.855;32.227;64.941;46.387
1553639738;40.527;26.367;31.738;49.805;40.527
1553639738;7.812;27.344;34.18;17.09;27.344
1553639738;8.301;26.855;32.227;14.648;20.996
1553639738;29.297;32.715;29.297;48.828;36.621
1553639738;29.785;32.715;27.832;48.34;45.898
1553639738;31.738;31.25;26.367;32.715;44.434
1553639738;39.062;28.809;30.762;32.227;47.852
1553639738;27.832;27.832;39.062;24.902;38.086
1553639738;25.879;32.715;37.598;21.484;20.996
1553639738;28.32;32.227;34.668;25.879;15.625
1553639738;22.461;29.297;38.574;33.203;7.812
1553639738;26.367;26.367;38.086;38.574;11.719
1553639738;12.207;23.926;36.133;35.156;19.043
1553639738;1.465;22.949;36.133;24.414;19.531
1553639738;5.371;22.949;33.691;19.043;16.113
1553639738;16.602;22.461;30.273;31.738;15.625
1553639738;22.949;19.043;30.762;34.18;19.043
1553639738;14.648;14.648;35.645;27.832;21.973
1553639738;7.812;16.602;39.062;33.691;23.926
1553639738;7.812;22.461;36.133;43.945;20.996
1553639738;19.043;26.855;35.156;34.668;29.297
1553639738;34.668;25.879;31.25;21.484;34.18
1553639738;28.809;23.438;30.273;31.25;32.715
1553639738;22.949;22.461;30.762;41.016;29.297
1553639738;28.32;24.902;26.367;17.578;31.738
1553639738;16.602;28.809;26.855;10.742;37.109
1553639738;6.348;25.879;29.297;32.227;40.527
1553639738;23.438;21.484;37.109;34.668;41.992
1553639738;28.32;20.996;42.969;31.738;34.668
1553639738;21.484;20.508;33.203;34.668;21.484
1553639738;42.48;18.066;28.32;48.828;16.602
1553639738;41.504;16.113;36.621;67.383;9.277
1553639738;-2.441;16.602;37.109;48.828;-3.418
1553639738;-16.602;18.066;30.762;23.438;-6.348
1553639738;11.719;19.043;24.902;15.137;-4.395
1553639738;20.996;22.461;23.926;6.836;-0.977
1553639738;26.367;22.461;23.926;5.859;7.324
1553639738;37.109;18.555;29.297;0;17.09
1553639738;21.484;15.625;38.574;18.555;25.391
1553639738;20.996;17.09;38.086;41.992;22.461
1553639738;30.762;23.438;35.645;29.785;21.973
1553639738;39.062;27.832;30.273;11.23;31.738
1553639738;39.551;27.344;26.367;19.531;42.48
1553639738;31.25;22.461;34.18;49.805;50.781
1553639738;31.738;17.578;41.504;61.035;49.316
1553639738;38.086;18.555;38.086;32.715;31.25
1553639738;21.973;24.902;31.738;10.742;9.766
1553639738;17.09;26.855;27.832;8.789;8.301
1553639738;28.809;26.367;28.32;9.277;18.066
1553639738;21.484;28.32;33.203;32.227;21.484
1553639738;24.414;27.344;31.738;26.855;20.02
1553639738;30.762;26.367;31.738;16.602;17.578
1553639738;30.273;26.855;34.18;33.691;19.531
1553639738;41.016;27.344;30.762;13.672;15.625
1553639738;31.25;23.926;28.32;6.348;5.371
1553639738;16.113;23.438;32.227;29.785;10.254
1553639738;27.832;24.414;35.156;40.039;22.949
1553639738;35.645;22.461;33.691;31.25;24.902
1553639738;23.438;20.508;33.203;11.719;27.832
1553639738;19.531;19.043;39.062;12.695;42.969
1553639738;33.203;16.113;43.945;41.992;62.012
1553639738;39.551;12.207;42.48;23.438;62.988
1553639738;36.621;20.508;37.598;-5.859;48.34
1553639738;31.25;32.227;33.691;18.555;51.758
1553639738;33.691;33.203;34.18;28.809;67.871
1553639738;41.504;32.715;31.25;36.621;80.078
1553639738;38.086;37.109;30.762;58.594;82.52
1553639738;39.551;33.691;37.598;48.34;73.242
1553639738;44.922;25.391;46.387;41.016;65.43
1553639738;44.922;29.785;47.363;42.48;63.965
1553639738;23.438;35.645;44.434;60.059;62.5
1553639738;21.973;29.297;42.969;72.266;59.57
1553639738;44.922;24.902;41.992;57.617;59.082
1553639738;24.414;25.879;40.527;44.922;57.129
1553639738;21.484;25.391;37.109;39.551;53.223
1553639738;29.785;28.32;33.691;44.922;56.641
1553639738;31.25;26.855;37.109;52.246;56.152
1553639738;32.227;21.973;41.992;47.852;47.852
1553639738;20.996;19.531;42.48;41.992;41.504
1553639738;36.133;18.555;39.551;58.594;49.805
1553639738;44.922;18.066;37.598;62.5;61.035
1553639738;31.738;20.508;37.109;35.645;54.688
1553639738;22.949;24.902;32.227;30.273;45.898
1553639738;29.785;27.832;28.32;41.504;44.434
1553639738;36.621;31.25;29.297;35.156;45.898
1553639738;23.438;36.133;31.25;33.203;41.504
1553639738;17.09;31.25;35.156;39.551;32.227
1553639738;28.809;23.926;39.062;43.457;23.438
1553639738;26.367;27.832;37.598;43.457;17.09
1553639738;10.254;31.25;32.227;37.598;10.254
1553639738;13.672;33.203;24.414;41.016;10.254
1553639738;38.574;32.715;22.949;38.574;14.648
1553639738;41.504;27.832;29.297;43.945;18.555
1553639738;29.297;25.879;33.203;54.199;26.855
1553639738;27.832;30.273;35.156;47.852;41.504
1553639738;37.109;36.133;33.203;36.621;54.688
1553639738;49.805;39.062;32.227;24.414;63.965
1553639738;52.734;39.062;32.227;27.832;72.266
1553639738;53.223;35.645;31.738;32.715;73.73
1553639738;40.039;36.133;31.25;31.25;62.988
1553639738;29.785;37.598;28.32;31.25;51.27
1553639738;29.785;35.156;28.809;35.156;41.992
1553639738;26.367;31.25;32.227;63.965;34.18
1553639738;26.367;29.785;31.738;70.312;36.621
1553639738;29.297;35.156;28.809;24.902;34.668
1553639738;30.762;40.039;25.391;10.742;25.391
1553639738;41.992;42.969;24.414;18.555;30.273
1553639738;35.156;41.016;29.785;22.949;33.691
1553639738;24.902;34.668;33.203;26.855;21.484
1553639738;20.02;28.809;34.18;34.668;15.625
1553639738;25.879;28.809;33.691;33.203;18.066
1553639738;32.227;31.25;23.926;33.691;20.508
1553639738;21.484;30.273;22.461;45.898;20.508
1553639738;13.672;28.809;26.855;44.434;20.02
1553639738;24.414;26.367;27.832;28.32;32.715
1553639738;40.039;26.855;28.32;28.809;54.688
1553639738;62.988;28.32;27.832;41.504;62.988
1553639738;60.547;29.785;27.344;55.664;57.617
1553639738;43.945;30.762;26.855;44.922;58.594
1553639738;35.156;29.297;26.367;41.992;59.57
1553639738;21.484;28.32;25.391;39.062;59.57
1553639738;29.785;26.367;23.926;32.227;57.129
1553639738;37.598;23.438;24.902;57.129;53.711
1553639738;36.621;23.926;29.785;51.27;55.176
1553639738;47.852;26.367;28.32;33.691;53.223
1553639738;69.824;29.785;19.043;40.039;53.223
1553639738;64.453;32.715;18.555;39.551;49.805
1553639738;50.293;27.344;25.879;37.109;28.809
1553639738;46.875;23.438;29.297;43.457;24.414
1553639738;23.438;20.508;28.809;50.781;36.621
1553639738;16.113;13.672;32.715;48.34;41.992
1553639738;26.367;14.648;29.297;43.457;31.738
1553639738;20.508;20.508;24.414;49.805;17.578
1553639738;20.508;20.02;23.926;37.598;23.926
1553639738;19.531;21.973;23.926;30.273;29.785
1553639738;31.738;26.367;22.949;42.969;37.598
1553639738;56.152;26.367;18.555;52.734;52.734
1553639738;57.129;26.855;17.578;54.199;62.012
1553639738;28.32;26.367;20.508;42.48;56.152
1553639738;25.391;22.949;24.902;33.203;51.758
1553639738;36.621;18.066;28.809;33.203;50.781
1553639738;50.293;14.648;31.738;49.316;55.664
1553639738;54.199;18.066;30.762;60.059;48.828
1553639738;35.645;21.973;26.855;72.754;41.992
1553639738;37.109;26.855;24.414;57.129;50.293
1553639738;44.434;30.273;27.832;44.922;55.664
1553639738;34.668;22.461;34.668;50.781;60.059
1553639738;39.551;19.043;37.109;46.387;56.641
1553639738;42.48;24.902;37.109;43.457;48.828
1553639738;28.809;29.785;34.668;40.527;47.363
1553639738;28.32;30.273;29.785;47.852;50.293
1553639738;40.039;25.879;27.832;68.359;45.41
1553639738;44.434;20.508;29.297;77.637;46.875
1553639738;42.48;20.508;29.297;71.289;47.363
1553639738;48.828;21.973;26.367;53.711;44.434
1553639738;53.711;20.508;30.273;42.48;36.621
1553639738;46.387;13.184;33.691;38.574;23.438
1553639738;36.133;9.766;35.645;41.504;21.973
1553639738;27.344;15.625;37.109;61.523;36.621
1553639738;24.902;17.578;32.715;59.57;40.039
1553639738;30.273;18.066;30.762;54.199;31.738
1553639738;52.734;20.02;33.203;54.688;34.18
1553639738;51.758;20.996;32.227;60.059;39.062
1553639738;43.945;19.043;29.785;61.035;38.574
1553639738;36.621;12.207;33.691;41.504;28.809
1553639738;37.598;12.695;33.691;35.645;24.414
1553639738;58.105;18.066;32.227;34.668;22.949
1553639738;43.457;20.02;31.738;39.062;23.438
1553639738;28.32;16.113;31.738;51.27;25.391
1553639738;37.598;11.23;36.621;64.941;33.203
1553639738;32.715;12.207;38.086;75.195;38.574
1553639738;40.527;16.113;35.645;68.359;33.691
1553639738;51.758;21.973;29.785;46.875;33.203
1553639738;46.875;28.809;24.902;41.016;43.457
1553639738;58.105;26.855;30.273;46.387;39.062
1553639738;50.781;21.973;38.574;39.551;31.738
1553639738;26.367;23.926;40.039;25.879;34.18
1553639738;28.809;23.926;40.527;31.738;41.016
1553639738;42.969;17.578;43.945;53.223;51.758
1553639738;48.828;17.578;44.922;63.965;52.246
1553639738;57.129;23.438;39.551;57.617;46.387
1553639738;50.781;25.391;36.133;43.945;30.762
1553639738;26.367;26.855;35.156;41.992;17.09
1553639738;33.691;31.25;36.133;39.551;21.973
1553639738;36.133;29.785;37.109;48.34;28.809
1553639738;23.926;23.926;35.156;46.387;23.438
1553639738;31.738;29.297;32.715;31.25;15.625
1553639738;28.809;34.18;30.762;46.387;14.16
1553639738;39.062;32.715;28.809;36.621;30.273
1553639738;42.48;32.715;21.973;20.02;42.48
1553639738;45.898;32.715;23.926;36.621;33.203
1553639738;27.344;27.832;34.668;19.043;21.484
1553639738;16.602;27.344;36.621;11.719;30.762
1553639738;43.945;30.273;30.762;25.879;41.016
1553639738;40.039;25.391;29.785;38.086;37.598
1553639738;34.668;22.461;36.133;49.805;36.133
1553639738;36.621;20.02;40.527;46.875;41.992
1553639738;30.273;18.066;35.156;46.875;49.316
1553639738;31.25;18.555;35.645;45.898;48.828
1553639738;31.738;15.625;36.133;42.48;37.109
1553639738;27.344;20.996;31.25;49.316;22.949
1553639738;16.602;25.879;29.785;38.086;23.438
1553639738;8.789;22.461;29.297;12.695;24.414
1553639738;17.09;21.484;29.297;15.137;23.926
1553639738;29.297;20.508;31.25;29.297;26.855
1553639738;25.391;20.02;32.227;46.387;26.367
1553639738;28.809;22.949;32.227;40.527;21.484
1553639738;25.879;29.785;34.668;21.484;21.973
1553639738;32.715;31.738;34.18;21.973;26.367
1553639738;30.273;36.621;31.738;45.41;31.738
1553639738;12.695;39.062;30.762;47.363;33.691
1553639738;15.625;34.18;35.645;37.598;38.086
1553639738;24.414;30.762;42.48;45.41;37.598
1553639738;33.203;33.203;39.062;25.879;33.691
1553639738;27.344;41.992;35.156;6.836;29.785
1553639738;30.762;42.48;35.645;16.602;17.578
1553639738;37.109;43.457;32.715;13.184;21.973
1553639738;24.902;44.434;31.25;34.668;37.598
1553639738;33.691;39.551;35.645;75.684;43.457
1553639738;35.156;35.156;37.598;57.129;40.039
1553639738;25.391;32.715;38.574;22.461;33.691
1553639738;16.113;33.203;35.156;12.695;26.367
1553639738;24.414;36.621;32.715;28.809;25.879
1553639738;38.574;36.621;32.227;34.18;27.832
1553639738;39.062;39.551;34.18;29.297;22.461
1553639738;32.715;40.039;35.645;34.18;18.555
1553639738;22.949;41.504;31.25;21.973;22.461
1553639738;10.254;42.969;28.32;20.996;30.762
1553639738;19.531;38.574;25.391;27.832;37.109
1553639738;41.504;39.551;24.902;46.875;42.969
1553639738;36.621;40.527;27.344;54.199;41.992
1553639738;19.531;36.133;31.25;39.551;39.062
1553639738;36.133;30.762;33.691;30.273;40.527
1553639738;47.852;32.227;33.203;19.531;35.645
1553639738;40.039;31.738;28.32;18.066;31.738
1553639738;42.969;35.156;28.32;28.32;41.016
1553639738;37.109;41.016;35.156;42.48;43.945
1553639738;10.254;40.527;33.691;59.082;37.598
1553639738;9.277;43.945;31.25;27.344;31.738
1553639738;26.367;42.969;34.18;18.555;31.25
1553639738;28.809;36.133;38.574;50.781;24.414
1553639738;30.273;37.598;37.598;48.34;17.578
1553639738;36.133;39.551;34.668;26.855;15.625
1553639738;27.344;34.668;35.156;38.574;18.066
1553639738;20.996;30.762;40.039;45.898;24.414
1553639738;22.949;34.668;42.48;16.602;26.367
1553639738;28.809;37.598;36.621;1.465;34.18
1553639738;23.438;39.062;35.156;15.625;40.527
1553639738;25.879;41.016;28.809;46.387;43.457
1553639739;55.664;36.621;24.414;51.758;46.387
1553639739;44.434;36.133;31.738;27.344;41.504
1553639739;28.32;36.133;37.109;22.949;27.832
1553639739;16.602;33.203;37.598;41.992;21.484
1553639739;3.906;31.25;38.574;30.762;34.668
1553639739;20.996;28.809;39.551;11.719;42.969
1553639739;18.066;27.344;35.645;11.23;34.18
1553639739;22.461;34.18;30.762;14.648;33.203
1553639739;43.945;38.086;29.297;21.484;27.344
1553639739;17.09;37.109;28.32;24.902;11.719
1553639739;6.348;37.109;27.832;23.926;8.789
1553639739;19.531;38.574;28.32;16.602;14.648
1553639739;33.691;38.086;29.297;29.297;21.973
1553639739;42.969;35.156;30.273;42.48;21.484
1553639739;26.855;41.504;25.879;24.902;16.113
1553639739;18.555;41.992;20.996;27.344;27.344
1553639739;32.715;41.504;20.02;29.297;41.504
1553639739;37.109;38.086;21.973;3.906;31.25
1553639739;16.602;32.227;26.367;-0.488;20.996
1553639739;13.672;31.25;27.344;12.207;23.926
1553639739;25.879;24.902;29.297;23.438;27.344
1553639739;20.02;20.02;30.273;20.02;22.461
1553639739;21.973;22.461;29.297;31.25;19.043
1553639739;42.48;18.066;38.574;81.055;32.715
1553639739;32.715;17.09;41.504;73.73;36.621
1553639739;19.531;23.438;32.715;17.578;13.672
1553639739;9.766;30.273;27.832;-20.508;-4.395
1553639739;4.395;32.715;29.785;-18.066;2.93
1553639739;15.625;36.621;28.32;2.93;15.137
1553639739;13.672;36.133;27.832;5.859;15.625
1553639739;11.23;36.133;30.762;23.926;2.93
1553639739;24.902;42.969;33.691;41.016;-5.859
1553639739;24.414;47.363;34.18;36.133;2.441
1553639739;2.441;45.898;35.645;32.227;12.695
1553639739;1.465;47.852;34.18;24.902;19.043
1553639739;24.414;48.828;30.273;19.531;24.902
1553639739;37.598;45.41;30.273;18.555;26.367
1553639739;34.18;43.945;30.762;16.602;35.156
1553639739;27.832;40.527;29.785;5.859;45.41
1553639739;47.363;36.621;35.645;20.996;42.969
1553639739;49.805;33.691;43.457;37.598;50.781
1553639739;16.602;32.715;43.457;29.297;63.477
1553639739;10.254;36.133;40.527;35.156;52.246
1553639739;-0.977;40.039;39.062;27.344;25.879
1553639739;-6.836;40.039;34.668;13.184;19.043
1553639739;18.555;41.992;33.691;13.184;20.996
1553639739;27.344;44.922;34.668;24.414;22.949
1553639739;12.207;41.992;36.621;26.367;18.066
1553639739;9.277;41.016;38.086;17.578;9.766
1553639739;19.531;46.875;38.574;28.32;7.812
1553639739;22.461;48.828;38.086;16.602;9.277
1553639739;15.137;44.922;38.086;-3.418;9.766
1553639739;14.16;43.945;36.133;16.602;6.348
1553639739;26.855;45.898;32.227;53.711;18.066
1553639739;28.32;49.316;28.809;44.922;36.621
1553639739;35.156;49.805;26.855;24.414;38.574
1553639739;33.691;45.41;30.762;19.531;32.715
1553639739;33.691;40.527;34.18;32.227;38.086
1553639739;44.434;34.668;36.133;51.758;48.828
1553639739;48.828;26.367;37.598;38.086;57.129
1553639739;52.734;22.949;34.668;21.973;54.199
1553639739;50.293;27.832;28.809;41.016;47.852
1553639739;27.832;31.25;31.25;58.594;54.688
1553639739;14.648;28.809;32.227;50.293;54.199
1553639739;20.996;24.414;30.273;33.691;39.551
1553639739;31.25;23.926;32.227;36.621;39.062
1553639739;49.805;28.32;31.25;43.945;42.48
1553639739;53.711;27.832;27.832;50.293;35.645
1553639739;35.156;25.879;26.855;52.246;22.949
1553639739;24.414;28.809;28.32;41.992;21.484
1553639739;52.734;32.715;27.344;48.828;36.621
1553639739;69.824;30.273;26.367;57.617;48.34
1553639739;40.527;27.832;26.367;44.434;46.387
1553639739;25.391;24.414;23.926;62.5;39.062
1553639739;34.668;20.02;19.043;44.434;42.969
1553639739;49.316;20.996;18.066;19.043;49.805
1553639739;53.223;20.02;22.949;44.922;49.316
1553639739;51.758;21.973;23.438;39.551;37.109
1553639739;35.645;21.973;25.879;37.109;33.203
1553639739;33.203;14.648;31.25;42.969;40.527
1553639739;60.059;14.16;32.715;37.598;41.992
1553639739;46.875;18.555;28.809;50.781;37.109
1553639739;49.805;23.438;28.32;48.828;37.109
1553639739;53.223;24.902;32.227;49.316;40.527
1553639739;35.156;21.484;33.203;55.664;45.898
1553639739;29.297;22.949;31.25;48.34;45.41
1553639739;49.316;31.738;30.762;43.457;40.039
1553639739;55.176;37.109;30.273;59.57;36.133
1553639739;28.809;32.227;32.227;76.172;43.457
1553639739;26.367;31.25;28.32;64.941;50.781
1553639739;39.062;33.691;22.461;48.828;45.898
1553639739;46.875;31.738;20.996;41.016;44.434
1553639739;47.363;30.273;22.461;22.949;48.828
1553639739;51.27;32.227;25.879;20.996;51.758
1553639739;50.293;32.715;29.785;37.598;39.551
1553639739;29.297;29.297;33.691;37.598;27.832
1553639739;33.691;27.344;34.18;44.434;34.668
1553639739;32.715;27.832;31.738;55.176;38.086
1553639739;32.227;25.391;32.715;42.969;37.109
1553639739;62.012;24.902;35.156;38.574;40.527
1553639739;65.43;25.879;33.691;41.016;36.133
1553639739;37.598;23.926;31.25;42.48;34.18
1553639739;40.527;27.344;26.855;37.109;34.18
1553639739;37.598;29.297;28.809;21.484;31.738
1553639739;21.484;28.32;35.156;46.387;33.691
1553639739;28.32;26.367;39.062;61.523;35.156
1553639739;30.762;25.391;38.574;46.875;28.809
1553639739;26.367;28.32;34.668;38.574;22.949
1553639739;40.527;35.156;29.785;33.203;32.227
1553639739;49.805;38.086;28.809;27.344;35.156
1553639739;46.387;36.621;36.133;25.879;32.227
1553639739;39.062;36.133;41.504;41.016;37.109
1553639739;36.621;31.738;44.434;43.945;44.922
1553639739;30.762;27.344;48.34;37.598;52.246
1553639739;35.645;25.879;43.457;32.715;51.758
1553639739;33.203;30.762;36.621;27.832;40.527
1553639739;42.969;35.645;33.691;34.668;34.668
1553639739;36.621;30.762;28.32;41.992;31.25
1553639739;17.09;26.367;31.25;40.039;29.785
1553639739;23.926;20.508;37.109;26.855;33.691
1553639739;28.809;19.531;34.18;29.785;32.227
1553639739;31.738;26.855;37.109;41.504;32.715
1553639739;26.855;32.227;36.133;23.926;30.273
1553639739;32.715;31.738;28.809;13.672;20.996
1553639739;34.18;29.297;21.973;12.695;18.066
1553639739;24.902;33.691;19.531;9.766;20.02
1553639739;20.02;33.691;25.391;33.203;26.367
1553639739;16.602;29.297;30.273;45.41;30.762
1553639739;10.742;30.762;27.832;43.457;27.344
1553639739;19.531;35.156;23.438;54.199;27.832
1553639739;34.18;37.598;23.438;41.992;34.668
1553639739;32.227;34.18;26.367;15.137;28.809
1553639739;35.156;28.809;31.738;3.906;20.508
1553639739;35.156;27.344;36.133;10.742;19.043
1553639739;25.879;27.344;33.203;13.672;20.02
1553639739;26.367;28.809;25.879;27.832;28.809
1553639739;16.602;28.809;26.855;52.246;28.32
1553639739;12.695;26.855;31.738;31.738;20.02
1553639739;29.785;23.438;35.645;0.488;23.438
1553639739;22.949;19.043;39.062;12.695;33.691
1553639739;11.719;20.508;37.598;18.066;37.598
1553639739;19.531;26.855;33.203;13.672;32.715
1553639739;21.484;32.715;32.715;38.574;24.414
1553639739;30.762;38.574;34.668;51.758;20.508
1553639739;31.738;41.016;28.809;20.996;22.461
1553639739;20.02;47.363;25.879;18.066;32.715
1553639739;22.461;45.898;32.715;31.25;33.691
1553639739;17.578;36.621;39.551;21.973;29.297
1553639739;16.602;35.156;41.992;26.367;34.18
1553639739;21.484;38.574;43.457;35.645;31.738
1553639739;15.625;40.039;37.598;20.508;27.344
1553639739;38.574;38.574;30.273;3.906;28.32
1553639739;57.129;38.086;26.367;21.484;34.668
1553639739;34.18;37.598;26.855;37.598;42.48
1553639739;19.043;35.156;26.855;35.645;41.992
1553639739;26.367;35.645;25.879;37.598;41.504
1553639739;32.227;34.668;31.25;37.598;32.227
1553639739;27.832;32.227;39.062;50.293;35.645
1553639739;17.09;29.785;39.551;50.781;40.039
1553639739;16.113;31.25;34.18;15.625;28.32
1553639739;23.438;34.18;33.203;13.184;19.531
1553639739;26.367;35.645;31.738;25.879;29.297
1553639739;37.598;40.527;27.832;26.367;39.062
1553639739;41.504;41.504;27.344;34.18;40.039
1553639739;23.926;37.598;30.762;38.086;35.645
1553639739;7.812;34.18;32.227;31.738;30.762
1553639739;19.531;31.25;31.738;26.855;32.715
1553639739;27.344;33.203;27.832;40.527;36.621
1553639739;22.949;35.156;26.855;51.758;34.668
1553639739;25.391;30.762;35.156;41.504;29.297
1553639739;30.762;30.273;39.062;20.02;27.344
1553639739;24.414;31.25;34.668;16.113;26.367
1553639739;23.926;34.18;33.203;30.762;32.715
1553639739;22.949;37.109;33.203;43.945;37.598
1553639739;15.625;36.621;33.203;41.504;42.48
1553639739;20.996;32.715;35.645;43.457;45.898
1553639739;33.691;28.809;39.062;43.945;54.199
1553639739;32.227;32.227;40.039;35.156;64.941
1553639739;28.32;39.551;34.18;42.969;61.523
1553639739;23.438;41.016;29.785;39.062;45.898
1553639739;29.297;41.992;29.785;26.367;43.945
1553639739;39.551;44.922;27.832;52.734;51.27
1553639739;34.18;46.387;28.32;58.105;52.734
1553639739;32.227;44.434;30.762;26.367;47.852
1553639739;26.855;41.992;32.227;24.902;36.621
1553639739;25.391;40.527;31.738;40.039;39.062
1553639739;27.344;38.574;33.691;47.363;46.387
1553639739;42.969;35.645;37.109;51.27;47.852
1553639739;55.176;35.156;41.992;55.664;47.363
1553639739;39.062;35.156;44.434;58.105;41.504
1553639739;22.461;34.18;41.992;60.547;39.551
1553639739;14.16;36.621;35.156;50.781;38.574
1553639739;22.461;42.969;31.25;30.273;38.086
1553639739;33.691;44.434;33.691;33.203;41.992
1553639739;32.227;41.504;36.133;48.828;41.504
1553639739;35.156;39.062;40.527;49.316;48.34
1553639739;47.363;40.039;43.945;53.223;50.781
1553639739;30.273;40.527;39.551;41.992;38.086
1553639739;21.973;43.457;34.668;39.062;33.691
1553639739;46.875;46.387;32.715;59.57;47.852
1553639739;44.922;44.922;35.645;65.43;47.363
1553639739;37.598;41.016;40.527;57.129;34.668
1553639739;29.785;36.133;40.527;44.434;25.391
1553639739;21.484;31.738;42.48;31.738;22.461
1553639739;20.02;32.715;41.016;21.973;21.484
1553639739;22.949;32.227;37.109;21.973;13.184
1553639739;41.992;36.621;34.18;37.109;10.742
1553639739;32.715;40.039;31.25;46.387;11.719
1553639739;8.789;38.086;37.109;43.945;18.066
1553639739;9.277;36.133;39.551;23.926;18.066
1553639739;20.996;30.273;34.668;13.184;25.391
1553639739;29.297;28.809;39.062;35.156;32.227
1553639739;34.18;30.273;37.598;45.898;26.855
1553639739;28.32;37.109;25.391;36.621;18.066
1553639739;16.113;40.039;22.949;11.719;14.648
1553639739;35.156;36.621;25.879;24.414;19.531
1553639739;33.691;33.691;30.273;67.383;19.043
1553639739;9.277;29.297;29.785;47.363;20.508
1553639739;20.996;31.738;27.832;17.09;28.809
1553639739;41.504;36.621;30.273;34.668;35.156
1553639739;52.246;40.039;31.738;31.25;30.762
1553639739;34.18;34.668;33.203;23.438;23.926
1553639739;11.23;32.715;34.668;34.668;20.508
1553639739;21.484;35.645;33.691;33.691;13.184
1553639739;35.156;34.18;30.762;37.109;17.578
1553639739;23.438;32.715;36.133;44.434;28.809
1553639739;23.438;30.273;39.551;38.574;21.973
1553639739;38.574;26.855;38.574;38.086;20.996
1553639739;41.992;23.926;38.574;55.176;31.738
1553639739;29.297;28.32;38.574;45.898;34.668
1553639739;24.414;36.133;35.645;16.113;28.32
1553639739;42.969;38.086;29.297;15.625;35.156
1553639739;35.156;40.527;25.391;43.945;52.734
1553639739;21.973;38.086;30.273;46.387;57.129
1553639739;16.602;36.621;36.621;25.391;51.27
1553639739;30.762;35.156;35.156;37.598;39.062
1553639739;28.809;28.809;34.18;35.645;23.438
1553639739;8.301;30.762;32.715;8.301;17.578
1553639739;19.043;33.691;31.25;18.555;22.949
1553639739;22.461;36.621;35.156;34.668;20.508
1553639739;18.555;35.156;35.645;28.809;19.043
1553639739;43.457;31.738;36.133;31.738;33.691
1553639739;41.016;34.18;41.992;54.199;35.156
1553639739;18.555;35.156;41.016;51.27;11.23
1553639739;38.086;34.18;36.133;10.742;-0.488
1553639739;24.902;34.668;35.156;-1.953;8.301
1553639739;-2.93;38.086;32.715;13.672;22.949
1553639739;9.766;36.621;30.273;45.898;31.25
1553639739;25.391;33.691;32.227;56.641;24.414
1553639739;26.855;30.273;37.109;38.086;22.461
1553639739;33.691;26.855;34.668;36.133;27.344
1553639739;37.598;33.691;30.762;38.086;35.645
1553639739;42.969;37.598;26.855;42.48;45.898
1553639739;37.109;35.156;29.297;20.508;37.598
1553639739;24.902;33.691;41.016;15.625;21.484
1553639739;20.996;31.738;42.969;31.25;25.391
1553639740;21.973;30.762;41.016;33.203;33.203
1553639740;31.25;27.344;44.922;36.133;28.809
1553639740;37.598;28.32;43.945;27.832;20.996
1553639740;36.621;38.574;36.621;15.625;23.438
1553639740;13.184;35.645;34.18;11.719;26.367
1553639740;14.16;28.32;37.598;30.762;20.508
1553639740;26.855;32.227;40.527;42.969;16.602
1553639740;7.812;38.086;40.039;30.762;16.602
1553639740;4.395;39.551;39.551;21.973;20.02
1553639740;8.789;39.551;38.574;8.789;25.879
1553639740;24.902;41.992;33.203;7.812;36.621
1553639740;38.574;41.992;29.297;21.484;45.41
1553639740;30.273;36.621;35.156;25.879;37.109
1553639740;25.391;36.621;39.551;35.156;23.438
1553639740;29.297;37.109;39.551;40.527;27.344
1553639740;24.414;33.691;41.992;45.898;36.621
1553639740;22.949;36.621;41.992;50.293;36.133
1553639740;33.203;41.504;37.109;40.527;37.109
1553639740;34.668;44.434;33.691;44.434;43.945
1553639740;26.855;45.41;36.133;49.805;36.133
1553639740;29.785;45.898;41.016;25.391;28.809
1553639740;28.32;43.945;41.016;9.766;29.785
1553639740;26.367;36.621;39.551;17.09;28.809
1553639740;26.367;38.086;40.039;30.762;23.926
1553639740;29.785;42.969;36.621;29.297;24.902
1553639740;33.691;44.922;31.738;17.09;28.809
1553639740;55.664;43.457;28.32;14.648;27.344
1553639740;49.805;42.969;29.297;15.137;27.344
1553639740;13.184;42.969;38.574;36.621;21.973
1553639740;6.348;35.156;42.48;43.945;20.02
1553639740;15.137;30.762;41.992;32.227;26.855
1553639740;32.227;32.715;46.387;45.41;25.879
1553639740;27.832;35.156;41.504;59.082;21.973
1553639740;24.902;39.062;33.691;31.25;24.414
1553639740;20.508;41.016;35.156;7.812;21.973
1553639740;29.785;41.504;35.156;19.531;22.461
1553639740;49.316;43.457;37.109;27.832;24.902
1553639740;37.109;38.574;39.551;38.086;35.645
1553639740;38.086;37.598;41.016;57.617;40.039
1553639740;41.504;44.922;42.48;65.43;28.809
1553639740;26.367;46.875;41.992;23.438;21.973
1553639740;34.18;47.852;37.109;7.324;27.832
1553639740;40.527;53.711;32.715;43.945;36.621
1553639740;21.973;54.199;32.715;56.641;41.504
1553639740;22.949;45.41;34.18;40.527;38.086
1553639740;32.715;39.551;40.527;13.184;36.621
1553639740;35.156;37.598;44.434;24.902;37.598
1553639740;20.996;37.109;40.039;43.945;32.227
1553639740;28.809;40.527;37.109;39.062;24.902
1553639740;41.992;41.504;35.156;37.598;22.949
1553639740;31.738;40.039;34.668;44.922;20.508
1553639740;20.02;37.598;37.598;37.598;12.207
1553639740;24.902;37.598;35.156;28.809;16.602
1553639740;38.574;37.109;30.273;43.945;27.344
1553639740;43.457;36.133;30.273;48.34;30.762
1553639740;24.414;34.668;32.227;23.438;18.066
1553639740;10.254;34.18;30.762;19.043;12.207
1553639740;24.902;32.715;30.762;36.133;20.02
1553639740;25.391;26.855;36.621;50.293;31.25
1553639740;20.996;26.855;41.016;47.363;36.621
1553639740;27.832;29.785;39.551;33.203;31.738
1553639740;41.992;33.203;36.133;28.809;35.156
1553639740;41.504;35.156;34.668;16.602;40.527
1553639740;40.039;34.668;36.133;35.645;45.41
1553639740;45.898;34.18;39.062;59.57;39.062
1553639740;30.273;38.086;37.598;48.34;33.203
1553639740;39.062;42.48;35.156;29.785;47.852
1553639740;42.48;42.969;38.574;38.574;58.105
1553639740;37.109;37.598;39.551;52.734;42.969
1553639740;41.504;32.715;38.086;45.41;33.691
1553639740;40.039;36.133;34.668;44.434;43.457
1553639740;46.875;41.016;32.227;47.852;48.34
1553639740;38.574;42.969;31.25;47.852;43.457
1553639740;44.922;42.969;34.18;47.363;41.016
1553639740;49.316;45.41;37.109;43.457;41.992
1553639740;30.273;41.504;35.156;34.668;41.992
1553639740;31.25;36.133;35.156;42.969;40.527
1553639740;36.621;35.645;31.25;62.5;39.551
1553639740;42.48;30.762;24.902;50.781;39.551
1553639740;46.387;30.762;24.414;45.898;44.922
1553639740;38.574;33.203;25.391;50.781;45.41
1553639740;29.297;35.645;25.879;55.176;34.18
1553639740;29.297;38.086;28.32;52.246;35.645
1553639740;44.434;36.621;28.32;37.109;36.133
1553639740;40.527;39.062;29.785;26.367;40.527
1553639740;25.391;41.504;32.715;24.902;37.109
1553639740;33.203;38.086;29.297;21.973;26.367
1553639740;42.969;34.668;28.32;41.504;33.691
1553639740;58.105;37.598;26.367;68.359;47.363
1553639740;48.34;41.016;30.273;66.406;50.293
1553639740;15.137;35.645;33.203;42.969;40.039
1553639740;25.879;29.785;34.18;34.668;37.109
1553639740;41.504;29.297;39.062;53.711;41.504
1553639740;32.227;35.156;39.551;58.105;40.039
1553639740;28.32;41.504;34.18;33.203;35.645
1553639740;34.18;41.992;26.855;21.973;35.645
1553639740;36.621;40.527;27.344;26.367;33.691
1553639740;39.551;40.527;30.273;16.602;34.18
1553639740;25.391;43.945;30.273;21.484;38.086
1553639740;24.414;42.48;26.367;38.574;37.598
1553639740;38.086;38.086;24.414;42.48;39.062
1553639740;41.016;37.598;26.855;42.969;37.109
1553639740;44.434;36.621;32.227;51.758;31.738
1553639740;38.574;34.18;30.273;37.598;35.156
1553639740;39.551;35.645;28.809;27.344;36.133
1553639740;26.367;29.785;36.133;50.293;28.809
1553639740;13.184;26.855;36.133;36.133;26.855
1553639740;18.066;28.32;35.645;21.973;22.461
1553639740;10.742;32.715;33.203;16.602;17.578
1553639740;12.207;36.621;28.32;6.836;17.578
1553639740;38.086;38.574;27.832;23.438;23.438
1553639740;49.316;40.039;27.344;48.34;22.949
1553639740;39.062;39.062;29.785;41.016;21.973
1553639740;21.484;34.668;32.227;16.113;27.344
1553639740;19.531;27.832;40.527;20.508;39.062
1553639740;34.668;29.297;41.992;31.738;37.109
1553639740;24.902;36.621;35.645;22.949;22.461
1553639740;20.02;37.598;36.133;47.852;22.949
1553639740;20.996;32.715;36.621;54.199;22.949
1553639740;21.973;36.621;35.156;18.555;24.414
1553639740;51.758;42.969;36.133;1.465;25.879
1553639740;43.457;41.992;37.109;11.719;26.855
1553639740;26.367;40.039;30.273;29.785;35.645
1553639740;29.297;38.086;28.32;21.973;39.551
1553639740;23.438;39.062;37.109;6.348;35.156
1553639740;14.16;38.574;43.457;29.785;33.691
1553639740;6.348;34.668;40.527;42.48;34.18
1553639740;16.113;36.133;30.762;28.809;36.621
1553639740;26.855;39.062;29.785;29.297;37.109
1553639740;36.133;38.086;36.621;35.645;34.668
1553639740;36.133;32.715;41.016;45.898;34.668
1553639740;20.02;31.25;42.969;55.176;32.227
1553639740;18.555;31.738;39.062;24.902;31.738
1553639740;23.926;34.18;33.203;0;35.645
1553639740;17.578;36.133;33.203;15.625;37.598
1553639740;16.602;36.133;32.227;19.531;32.227
1553639740;28.32;35.156;33.203;20.508;25.879
1553639740;23.438;36.621;36.133;10.254;25.879
1553639740;33.691;39.551;32.227;32.227;29.785
1553639740;39.551;41.016;27.832;52.734;26.855
1553639740;37.598;44.434;30.762;8.789;29.297
1553639740;33.203;38.574;36.621;15.137;39.551
1553639740;16.113;32.227;45.41;59.57;40.039
1553639740;41.016;35.645;44.434;64.941;39.551
1553639740;35.645;36.621;34.668;39.551;36.621
1553639740;26.855;38.086;30.273;23.438;40.527
1553639740;40.527;39.062;30.762;30.273;34.18
1553639740;41.016;36.621;32.227;23.438;29.297
1553639740;48.828;40.039;39.062;24.902;46.387
1553639740;32.715;27.344;44.922;30.273;47.852
1553639740;25.391;24.902;39.062;21.484;33.691
1553639740;41.504;43.457;26.367;29.785;33.691
1553639740;38.574;46.387;25.879;38.086;43.457
1553639740;40.039;40.527;37.598;50.781;47.363
1553639740;46.387;33.203;47.363;61.523;48.34
1553639740;42.969;34.18;50.781;59.57;36.133
1553639740;38.574;40.039;43.945;47.852;27.344
1553639740;41.504;40.527;36.621;39.062;32.715
1553639740;45.898;37.598;27.344;39.062;35.156
1553639740;47.363;37.598;29.297;41.016;33.203
1553639740;45.41;32.715;40.039;43.945;29.785
1553639740;28.809;26.367;40.039;54.199;37.109
1553639740;21.973;26.367;37.598;41.016;45.41
1553639740;31.25;30.762;33.203;30.762;42.969
1553639740;36.133;28.32;33.203;64.941;44.434
1553639740;52.246;21.484;41.016;83.008;48.34
1553639740;60.059;21.484;40.527;63.965;43.945
1553639740;37.598;25.391;34.18;40.039;44.922
1553639740;30.762;25.391;32.227;44.434;40.527
1553639740;35.156;23.926;34.668;41.016;34.668
1553639740;38.574;26.855;32.715;23.438;34.18
1553639740;31.25;29.785;27.344;19.043;21.973
1553639740;30.273;31.738;26.855;19.531;22.949
1553639740;40.527;26.367;28.32;33.203;31.25
1553639740;47.363;22.949;28.32;55.176;36.133
1553639740;58.594;28.809;27.832;35.645;43.945
1553639740;51.758;30.273;28.809;23.438;36.133
1553639740;51.758;31.25;23.438;38.574;34.668
1553639740;51.27;33.203;21.484;31.738;49.316
1553639740;35.156;29.785;22.949;23.438;53.711
1553639740;33.203;28.32;23.438;49.316;51.758
1553639740;37.598;28.809;30.762;80.566;55.664
1553639740;44.434;25.879;34.18;62.5;56.152
1553639740;42.969;22.949;33.691;40.527;48.828
1553639740;40.527;24.414;32.227;49.316;43.945
1553639740;45.41;28.32;33.203;42.969;41.016
1553639740;49.316;30.762;33.203;19.043;46.387
1553639740;68.359;32.227;36.133;35.156;50.293
1553639740;55.664;36.621;38.086;61.523;44.434
1553639740;26.855;28.809;34.18;58.105;48.34
1553639740;48.34;23.926;33.203;50.293;55.176
1553639740;71.289;27.832;33.203;58.105;57.129
1553639740;65.43;28.809;32.227;58.594;56.152
1553639740;52.246;34.18;35.645;64.941;54.199
1553639740;51.27;28.32;36.133;63.965;63.477
1553639740;77.148;27.832;34.18;48.34;70.801
1553639740;80.566;31.25;33.691;62.988;79.59
1553639740;74.219;27.832;37.109;83.008;95.703
1553639740;79.102;28.809;38.086;105.957;79.102
1553639740;71.289;33.203;35.645;102.051;66.895
1553639740;56.152;35.156;34.668;77.637;82.52
1553639740;60.547;32.227;30.762;66.895;79.59
1553639740;66.895;36.133;30.273;52.734;69.336
1553639740;69.336;39.062;26.855;53.223;65.43
1553639740;57.617;38.086;24.414;56.152;66.895
1553639740;68.359;36.621;25.879;48.34;71.289
1553639740;84.473;31.738;27.344;59.57;69.336
1553639740;59.57;29.785;26.855;69.336;63.477
1553639740;54.688;33.691;22.461;61.523;61.523
1553639740;59.082;31.25;23.438;83.496;60.059
1553639740;64.941;28.32;25.879;87.402;59.082
1553639740;48.828;25.879;25.391;60.059;59.57
1553639740;39.062;23.926;25.391;47.363;59.57
1553639740;66.895;27.344;22.949;55.176;57.129
1553639740;84.473;28.809;25.391;67.383;50.293
1553639740;62.012;25.879;27.344;55.176;47.363
1553639740;31.25;23.438;28.809;63.965;51.758
1553639740;52.246;24.902;30.273;58.105;49.805
1553639740;47.852;24.902;29.297;34.18;47.852
1553639740;32.227;20.996;31.25;51.27;48.34
1553639740;46.875;22.949;28.809;46.875;52.246
1553639740;65.918;26.367;24.414;42.969;54.199
1553639740;49.805;23.926;26.855;46.387;50.781
1553639740;27.832;25.391;27.344;37.598;51.758
1553639740;40.039;25.391;26.855;41.992;45.41
1553639740;47.363;27.344;32.715;38.574;43.945
1553639740;45.898;33.691;31.25;45.898;39.551
1553639740;49.805;35.156;29.785;45.41;32.715
1553639740;45.898;32.227;32.715;34.668;33.691
1553639740;38.574;31.25;31.738;54.688;33.691
1553639740;41.992;34.668;30.762;56.152;34.18
1553639740;60.547;42.48;34.18;28.32;39.551
1553639740;63.965;41.016;35.645;31.25;46.875
1553639740;61.523;38.574;34.18;51.27;51.758
1553639740;62.012;38.086;33.203;61.035;51.758
1553639740;46.387;33.203;32.227;68.359;39.062
1553639740;31.25;33.203;27.344;46.387;37.109
1553639740;43.945;35.645;22.949;14.16;47.363
1553639740;51.758;36.621;21.973;20.996;50.293
1553639740;55.176;34.18;28.809;45.898;46.875
1553639740;47.852;25.391;34.668;46.387;46.387
1553639740;26.855;20.508;34.668;54.199;46.387
1553639740;23.438;27.344;31.738;63.477;33.691
1553639740;37.598;27.832;27.344;35.156;32.227
1553639740;58.594;30.273;24.414;43.457;39.062
1553639740;51.27;29.785;26.367;58.105;36.621
1553639740;38.574;25.391;30.273;25.391;35.645
1553639740;27.832;30.273;33.691;36.133;41.504
1553639740;29.785;31.25;33.203;53.223;42.48
1553639740;40.039;27.832;37.598;28.32;37.598
1553639740;34.668;26.855;40.039;26.367;32.227
1553639740;36.133;23.438;40.039;38.086;22.949
1553639740;29.785;18.066;44.922;28.32;18.555
1553639740;33.691;19.043;45.41;37.598;27.832
1553639740;43.457;21.973;42.48;46.875;35.156
1553639740;39.062;18.555;43.945;57.129;42.969
1553639741;31.25;22.461;43.457;65.43;37.109
1553639741;27.344;24.902;43.457;34.18;22.461
1553639741;34.18;17.09;48.34;23.438;20.996
1553639741;39.551;22.461;46.387;38.086;23.438
1553639741;45.898;32.227;39.551;40.527;19.531
1553639741;24.902;34.668;36.621;36.133;26.855
1553639741;27.344;38.574;33.203;30.762;36.621
1553639741;49.805;34.668;35.156;42.969;30.762
1553639741;32.715;27.832;39.062;33.691;27.832
1553639741;30.273;31.25;34.18;28.809;28.809
1553639741;20.02;31.25;32.715;43.457;19.531
1553639741;10.742;29.785;35.645;25.879;2.93
1553639741;30.762;28.809;41.016;26.855;3.418
1553639741;31.738;23.438;38.574;38.574;15.625
1553639741;17.578;19.531;32.715;26.367;12.695
1553639741;11.23;26.855;31.25;14.16;10.254
1553639741;15.625;27.344;37.598;14.648;17.09
1553639741;23.926;23.438;41.016;34.18;15.137
1553639741;26.367;24.902;38.086;35.156;20.508
1553639741;20.508;28.809;36.133;14.648;21.484
1553639741;33.691;26.367;34.18;19.043;26.367
1553639741;61.035;17.578;37.109;50.293;37.598
1553639741;51.758;21.973;40.039;50.781;29.297
1553639741;21.973;28.32;34.18;13.184;26.855
1553639741;20.996;34.18;26.367;16.602;35.156
1553639741;34.668;34.18;26.855;36.133;30.762
1553639741;29.297;24.414;36.621;32.715;36.133
1553639741;18.555;20.02;40.527;38.086;36.133
1553639741;13.672;25.879;35.156;35.645;15.625
1553639741;11.719;28.32;29.785;6.348;9.277
1553639741;22.949;32.227;25.391;2.441;23.926
1553639741;25.879;41.992;26.855;32.227;36.621
1553639741;27.832;38.086;31.25;34.18;31.25
1553639741;32.715;31.25;39.062;29.785;29.297
1553639741;31.25;31.25;39.551;41.504;32.715
1553639741;31.25;34.18;36.133;48.34;27.832
1553639741;35.645;37.598;35.645;44.922;23.926
1553639741;27.832;39.062;31.738;36.133;24.902
1553639741;24.902;42.969;26.855;30.273;33.203
1553639741;23.926;38.574;31.738;16.113;44.434
1553639741;32.715;31.738;36.621;28.809;49.805
1553639741;38.574;32.715;33.691;26.855;40.527
1553639741;34.18;35.645;28.809;20.02;22.461
1553639741;28.809;36.621;24.414;39.062;12.207
1553639741;37.109;37.109;26.855;45.898;20.996
1553639741;24.414;35.645;28.809;26.367;30.273
1553639741;17.09;33.691;28.809;36.621;22.949
1553639741;31.738;36.133;28.32;57.129;17.09
1553639741;36.133;34.18;29.785;28.809;19.043
1553639741;25.879;31.25;37.598;11.719;19.043
1553639741;20.996;32.715;41.016;16.113;27.344
1553639741;33.203;33.691;40.527;14.648;29.785
1553639741;44.922;36.133;34.18;23.438;26.855
1553639741;38.574;37.109;23.438;33.203;30.273
1553639741;30.273;39.062;26.855;28.809;28.32
1553639741;25.391;36.621;32.715;35.156;16.602
1553639741;18.555;34.18;38.086;57.617;19.531
1553639741;27.344;30.273;43.945;67.871;33.203
1553639741;23.926;31.25;37.109;44.922;31.738
1553639741;44.434;38.574;31.25;25.879;20.996
1553639741;61.035;41.504;31.25;12.695;18.555
1553639741;21.973;36.133;34.18;-1.953;23.438
1553639741;5.859;30.762;33.203;9.277;24.414
1553639741;18.555;36.133;28.809;10.742;22.949
1553639741;29.297;40.039;27.344;11.719;19.043
1553639741;11.719;34.668;31.25;32.227;11.719
1553639741;-10.742;28.32;34.18;36.621;14.648
1553639741;9.766;27.832;33.203;21.484;27.344
1553639741;45.41;31.25;30.273;26.367;29.785
1553639741;39.062;34.668;26.855;45.41;26.855
1553639741;22.949;31.738;28.32;45.898;28.809
1553639741;14.16;25.391;34.18;39.062;34.18
1553639741;14.16;27.832;35.645;32.227;33.691
1553639741;20.996;33.691;33.691;16.602;28.32
1553639741;17.578;38.086;29.785;13.672;24.902
1553639741;19.531;41.016;28.32;23.926;22.461
1553639741;24.902;38.086;33.691;38.086;28.809
1553639741;38.086;34.18;34.668;24.902;32.715
1553639741;46.387;35.645;32.715;7.324;36.621
1553639741;25.391;33.691;30.273;36.133;37.598
1553639741;11.23;32.227;29.785;47.852;34.18
1553639741;13.672;32.715;33.691;36.133;33.691
1553639741;28.32;37.109;29.785;46.387;35.645
1553639741;31.738;37.598;31.738;39.551;37.598
1553639741;47.852;36.621;33.691;12.695;39.062
1553639741;57.617;35.645;28.809;2.93;37.598
1553639741;33.691;34.18;29.297;5.859;32.227
1553639741;18.066;35.156;31.25;24.414;34.18
1553639741;13.672;34.18;34.668;23.926;36.621
1553639741;31.738;31.25;37.109;30.762;39.551
1553639741;42.969;29.785;33.203;67.383;32.715
1553639741;43.457;35.156;32.227;70.801;30.273
1553639741;40.039;37.598;36.133;38.574;37.598
1553639741;26.855;34.18;39.062;23.926;41.016
1553639741;30.762;32.715;38.086;21.973;30.762
1553639741;29.785;37.109;36.621;36.621;20.02
1553639741;26.855;41.016;34.18;46.875;28.809
1553639741;28.32;45.898;30.762;34.668;42.48
1553639741;34.18;41.992;33.691;33.691;39.551
1553639741;44.922;35.645;36.133;46.875;38.086
1553639741;36.621;38.574;36.621;34.668;43.457
1553639741;18.066;40.527;37.109;28.32;47.852
1553639741;25.391;43.945;34.668;53.711;48.34
1553639741;51.27;47.852;29.785;42.48;36.133
1553639741;53.711;43.457;27.832;10.742;33.691
1553639741;32.715;40.039;29.785;39.551;46.875
1553639741;34.668;40.039;32.715;68.848;50.781
1553639741;44.434;42.969;32.227;54.199;42.48
1553639741;44.922;42.48;31.25;47.363;32.227
1553639741;28.809;41.504;32.715;11.719;21.484
1553639741;6.348;41.504;33.691;4.395;23.926
1553639741;15.625;42.969;35.645;36.133;28.809
1553639741;35.156;44.922;37.109;35.156;29.297
1553639741;33.203;41.504;37.109;28.809;28.32
1553639741;35.645;41.504;33.691;33.203;34.18
1553639741;44.922;40.039;34.18;20.996;33.691
1553639741;54.688;41.992;36.133;6.348;28.809
1553639741;46.875;42.969;31.25;14.648;36.133
1553639741;38.574;40.039;30.762;40.039;43.457
1553639741;35.645;40.039;33.203;69.824;46.875
1553639741;25.879;37.598;31.738;62.012;46.875
1553639741;27.832;36.621;32.227;31.738;47.852
1553639741;36.621;37.109;33.691;29.297;52.246
1553639741;43.457;33.203;32.715;44.434;47.363
1553639741;40.527;32.227;35.645;38.574;37.109
1553639741;49.805;34.668;35.645;22.461;35.156
1553639741;52.246;31.25;30.762;34.18;38.086
1553639741;33.203;29.785;31.25;58.594;37.598
1553639741;28.32;35.645;34.18;57.129;32.227
1553639741;48.34;33.203;32.227;48.828;29.297
1553639741;47.363;32.227;31.738;41.016;32.227
1553639741;40.039;36.133;35.156;24.414;42.48
1553639741;33.203;35.645;36.133;35.645;39.062
1553639741;36.133;38.574;32.715;43.945;28.809
1553639741;36.133;40.039;32.715;38.086;35.156
1553639741;22.949;39.062;31.738;50.781;40.527
1553639741;24.414;36.133;33.203;61.523;36.133
1553639741;27.832;33.203;33.691;65.918;35.156
1553639741;32.715;33.691;30.762;36.133;41.016
1553639741;40.527;34.18;26.367;14.16;47.852
1553639741;45.41;33.691;26.367;28.32;50.781
1553639741;44.434;32.715;32.227;53.711;47.852
1553639741;45.41;31.25;35.645;66.895;46.387
1553639741;41.992;29.785;37.598;52.734;44.922
1553639741;49.805;27.344;37.598;40.527;49.316
1553639741;39.551;31.738;37.598;49.316;47.852
1553639741;19.043;29.785;33.203;47.363;38.086
1553639741;33.691;24.414;34.18;38.086;45.41
1553639741;40.039;27.832;36.621;47.363;55.664
1553639741;41.992;24.414;31.25;33.203;46.387
1553639741;48.34;30.762;33.203;19.043;44.922
1553639741;51.758;37.109;37.109;33.203;52.246
1553639741;42.969;34.18;37.109;42.48;53.711
1553639741;50.781;35.645;37.598;52.246;53.223
1553639741;46.387;34.668;36.133;51.27;43.457
1553639741;32.715;39.062;35.156;60.059;41.504
1553639741;34.18;41.016;35.645;57.129;46.387
1553639741;39.551;35.645;35.645;37.598;39.062
1553639741;42.969;34.668;34.668;40.527;42.969
1553639741;40.527;36.133;32.227;42.48;47.852
1553639741;30.762;34.18;31.738;33.203;28.809
1553639741;27.344;30.762;40.527;43.457;31.738
1553639741;44.922;32.715;43.457;58.594;50.293
1553639741;47.852;33.203;36.621;37.109;45.41
1553639741;39.551;29.297;31.738;23.438;33.691
1553639741;29.785;29.785;32.227;37.598;24.902
1553639741;30.762;30.762;30.273;25.879;25.879
1553639741;26.367;26.367;31.25;15.137;23.926
1553639741;34.18;32.227;32.715;32.227;30.762
1553639741;47.363;38.574;33.691;65.918;39.551
1553639741;31.738;34.18;35.645;78.125;39.062
1553639741;40.039;32.227;39.551;47.852;37.109
1553639741;50.293;34.668;43.945;25.391;35.156
1553639741;32.715;33.691;40.039;21.973;25.391
1553639741;25.879;32.715;36.133;11.23;17.578
1553639741;23.438;28.809;41.016;20.02;22.461
1553639741;19.043;30.273;43.457;35.645;24.414
1553639741;34.668;37.598;39.062;16.602;28.32
1553639741;34.668;34.18;38.574;13.184;33.203
1553639741;34.18;30.273;40.527;26.367;30.762
1553639741;40.039;32.227;38.574;26.855;21.973
1553639741;38.574;34.668;37.598;40.039;20.508
1553639741;38.086;33.691;38.086;47.852;24.414
1553639741;27.832;29.785;39.551;30.273;25.391
1553639741;32.227;28.32;37.598;31.25;24.414
1553639741;34.18;28.809;36.133;37.598;21.973
1553639741;23.926;29.785;40.527;29.785;27.832
1553639741;39.062;29.785;39.551;35.156;34.668
1553639741;43.457;28.32;38.086;31.25;32.227
1553639741;34.668;23.926;39.062;17.09;34.18
1553639741;38.574;17.578;36.621;23.926;37.109
1553639741;38.574;17.578;35.156;40.039;39.551
1553639741;36.621;18.555;32.715;62.5;40.527
1553639741;43.945;16.602;29.297;70.312;40.527
1553639741;68.359;17.09;29.785;63.477;45.898
1553639741;70.312;17.09;32.227;58.105;52.734
1553639741;28.809;14.648;30.273;53.711;52.246
1553639741;27.344;17.09;28.809;57.617;50.781
1553639741;40.039;21.484;28.809;40.527;51.758
1553639741;47.363;17.578;31.25;38.574;51.27
1553639741;61.523;15.137;28.809;66.406;46.387
1553639741;61.035;17.578;24.414;72.754;45.41
1553639741;45.898;20.508;25.879;72.266;47.852
1553639741;41.016;20.02;30.762;73.73;53.223
1553639741;47.363;19.043;30.273;52.734;56.641
1553639741;51.758;22.461;28.32;53.711;53.223
1553639741;73.242;24.902;30.762;72.754;52.734
1553639741;67.871;23.438;32.715;72.266;53.711
1553639741;52.246;23.438;33.203;52.734;59.082
1553639741;50.293;24.414;32.715;43.457;58.594
1553639741;38.574;25.391;32.715;52.246;55.664
1553639741;35.645;24.902;32.227;57.617;56.641
1553639741;40.039;22.949;31.738;65.43;51.758
1553639741;43.945;22.461;33.203;70.312;42.969
1553639741;41.016;20.508;30.273;56.152;41.504
1553639741;52.734;22.461;28.32;46.875;46.387
1553639741;47.363;26.855;31.738;44.922;50.293
1553639741;41.016;26.367;31.25;39.062;48.34
1553639741;51.758;29.785;32.227;61.035;42.969
1553639741;30.762;31.738;32.715;66.406;38.574
1553639741;19.043;32.227;32.227;55.176;40.527
1553639741;35.156;37.598;35.645;47.852;48.828
1553639741;51.758;36.621;35.156;33.203;44.434
1553639741;47.852;36.133;31.738;31.25;39.551
1553639741;51.27;37.109;35.645;34.668;39.551
1553639741;50.781;36.621;38.574;34.668;40.527
1553639741;29.785;35.156;31.738;46.875;38.574
1553639741;30.762;36.621;31.25;50.293;32.715
1553639741;30.273;34.668;36.621;50.781;31.25
1553639741;28.32;28.809;32.715;43.945;36.621
1553639741;39.551;29.297;32.227;29.785;36.133
1553639741;63.965;34.18;36.133;35.156;32.227
1553639741;54.199;29.785;39.551;42.48;33.203
1553639741;31.25;27.832;40.039;40.527;37.598
1553639741;34.18;29.297;35.156;25.879;41.016
1553639741;32.715;26.855;31.738;24.902;39.062
1553639741;30.273;29.297;31.25;27.344;35.156
1553639741;42.48;24.902;30.762;18.555;32.227
1553639741;46.387;20.02;28.32;26.855;32.715
1553639741;25.391;24.414;28.809;44.922;33.203
1553639741;20.508;27.832;30.762;42.48;37.598
1553639741;34.668;28.32;29.297;43.945;40.039
1553639741;42.48;26.367;26.855;65.918;43.945
1553639741;48.828;31.25;29.785;47.852;46.875
1553639741;48.828;33.691;31.738;31.25;42.48
1553639741;43.945;31.25;29.297;26.855;41.016
1553639741;63.477;26.367;25.879;16.602;41.016
1553639741;67.383;23.438;23.926;33.203;39.062
1553639741;30.273;20.508;24.414;60.547;31.25
1553639741;18.066;21.484;29.297;60.547;30.273
1553639741;30.273;25.879;27.344;31.25;39.551
1553639741;49.316;28.32;23.438;22.461;46.875
1553639741;46.387;32.715;29.785;32.715;48.34
1553639741;30.762;32.227;29.785;41.992;45.898
1553639741;52.734;26.367;24.414;48.34;45.41
1553639741;68.359;31.25;24.902;60.059;50.293
1553639742;49.316;35.645;29.297;59.57;54.688
1553639742;48.828;36.621;34.668;41.992;59.082
1553639742;58.105;38.086;36.621;39.551;60.059
1553639742;47.363;36.621;36.133;52.734;61.523
1553639742;46.875;36.621;35.156;60.547;57.617
1553639742;41.016;35.156;36.621;65.43;46.387
1553639742;26.367;33.203;34.668;55.176;40.039
1553639742;37.109;33.691;31.25;42.969;46.387
1553639742;55.664;40.039;33.203;55.176;47.363
1553639742;51.758;41.504;31.738;46.387;43.945
1553639742;42.969;36.621;32.715;31.738;44.922
1553639742;45.898;37.109;36.133;30.273;41.992
1553639742;53.711;38.086;36.621;42.48;45.41
1553639742;51.758;38.086;34.18;52.246;45.41
1553639742;33.203;36.133;35.156;50.293;38.574
1553639742;41.504;33.203;36.133;48.34;35.156
1553639742;39.551;34.18;37.109;38.086;41.504
1553639742;30.273;35.156;38.086;27.344;43.945
1553639742;28.809;30.762;34.668;30.762;41.016
1553639742;34.668;26.855;32.715;34.668;40.527
1553639742;38.574;25.879;34.668;43.945;42.969
1553639742;51.758;27.344;33.691;60.547;41.992
1553639742;43.457;31.25;32.227;44.434;37.598
1553639742;30.762;31.25;34.668;34.668;38.086
1553639742;47.363;28.809;34.668;34.668;39.062
1553639742;32.715;29.297;31.25;26.367;34.668
1553639742;14.16;26.855;33.203;30.762;27.832
1553639742;17.09;24.414;34.668;14.648;22.461
1553639742;24.414;27.344;32.227;9.766;20.508
1553639742;18.555;33.691;28.32;21.484;26.855
1553639742;23.438;32.227;25.391;26.855;30.762
1553639742;22.461;22.949;29.785;34.18;17.09
1553639742;17.09;20.996;32.715;57.129;13.672
1553639742;25.879;20.508;25.879;61.523;31.25
1553639742;34.18;20.508;20.996;38.086;31.738
1553639742;22.949;28.809;26.367;15.137;21.484
1553639742;10.742;30.273;35.645;2.441;33.203
1553639742;30.273;21.973;39.062;16.113;43.945
1553639742;39.062;22.461;33.691;18.555;31.25
1553639742;33.203;28.809;23.926;22.949;25.391
1553639742;37.598;31.738;24.902;39.551;29.297
1553639742;36.133;24.414;31.25;36.133;24.414
1553639742;29.785;19.531;33.691;26.367;16.113
1553639742;22.949;20.996;34.668;23.438;12.207
1553639742;17.578;17.578;32.227;20.02;20.02
1553639742;22.461;15.625;33.203;35.156;23.438
1553639742;14.648;15.625;33.691;38.574;13.184
1553639742;17.578;11.23;32.227;38.574;17.578
1553639742;47.852;8.789;32.227;42.48;37.109
1553639742;45.898;7.324;30.762;33.691;38.086
1553639742;31.738;3.906;30.762;28.809;32.715
1553639742;32.715;4.395;28.809;32.227;36.621
1553639742;29.297;2.93;26.855;45.898;43.945
1553639742;49.805;0;27.832;50.293;45.898
1553639742;47.363;0;28.32;52.734;48.34
1553639742;33.203;3.906;28.32;53.711;45.41
1553639742;40.039;8.789;30.273;52.734;38.086
1553639742;40.527;13.672;30.762;64.941;39.062
1553639742;34.668;13.672;32.227;53.223;38.086
1553639742;9.766;14.16;32.227;24.414;33.691
1553639742;18.066;18.066;26.855;9.277;30.762
1553639742;34.668;13.672;25.879;20.996;30.762
1553639742;27.832;4.395;27.344;47.363;26.855
1553639742;32.715;8.789;27.344;47.363;29.785
1553639742;36.133;11.23;28.809;32.227;32.227
1553639742;36.133;8.301;29.785;40.527;28.809
1553639742;33.203;11.23;31.738;25.879;32.715
1553639742;36.621;15.625;32.715;27.344;40.527
1553639742;32.227;19.531;36.133;43.457;42.969
1553639742;24.414;17.578;35.156;43.945;42.48
1553639742;24.902;12.695;30.273;42.969;43.945
1553639742;27.344;16.602;28.809;30.762;44.922
1553639742;24.414;18.066;29.297;34.18;41.992
1553639742;31.738;15.137;31.25;38.574;39.062
1553639742;51.758;18.066;30.762;34.18;42.969
1553639742;58.105;18.555;32.715;43.457;44.922
1553639742;26.855;17.578;30.762;48.828;43.945
1553639742;10.742;14.648;30.273;55.664;43.945
1553639742;25.391;17.578;37.598;59.082;46.387
1553639742;24.414;20.02;34.668;36.621;41.504
1553639742;29.297;20.02;33.203;26.367;39.062
1553639742;41.504;21.973;36.133;33.691;36.621
1553639742;36.133;22.949;33.691;42.48;28.809
1553639742;42.969;23.438;35.645;35.645;30.762
1553639742;53.711;26.855;38.086;24.902;37.109
1553639742;32.227;24.902;37.109;30.762;36.133
1553639742;22.461;20.508;37.109;45.898;30.762
1553639742;31.738;20.508;34.668;44.434;34.668
1553639742;33.691;24.414;34.18;39.062;44.922
1553639742;24.902;28.809;37.109;41.504;47.363
1553639742;26.367;28.809;33.203;30.762;39.062
1553639742;37.109;27.832;32.227;20.02;37.109
1553639742;37.598;28.809;35.156;37.109;42.969
1553639742;43.457;28.809;37.598;62.988;45.41
1553639742;53.711;26.855;38.086;47.363;40.527
1553639742;49.316;29.297;39.551;18.066;36.133
1553639742;31.738;32.227;41.504;20.508;32.227
1553639742;33.203;31.25;39.062;30.273;30.273
1553639742;30.273;29.785;36.621;46.387;25.391
1553639742;17.578;23.438;38.086;46.875;21.973
1553639742;24.414;21.973;41.016;26.367;33.691
1553639742;30.762;26.367;39.551;25.391;41.504
1553639742;25.391;27.832;36.621;32.227;36.133
1553639742;27.832;28.809;36.621;32.227;30.762
1553639742;22.461;33.691;35.156;37.109;25.391
1553639742;22.461;37.598;31.25;48.34;20.508
1553639742;51.758;41.016;28.32;37.109;23.926
1553639742;34.18;41.992;33.203;18.555;31.25
1553639742;2.93;36.133;39.062;25.391;32.715
1553639742;10.742;37.598;37.598;16.113;26.855
1553639742;24.902;40.527;34.668;-8.301;15.625
1553639742;17.578;43.945;31.738;0.488;15.137
1553639742;18.066;51.27;27.832;19.043;24.414
1553639742;30.762;47.852;32.715;24.414;29.785
1553639742;15.625;41.016;36.621;16.113;20.508
1553639742;3.906;45.41;33.203;1.465;0.488
1553639742;4.395;48.828;27.832;-2.441;-3.906
1553639742;16.113;51.758;26.367;3.906;1.465
1553639742;14.16;53.711;33.203;16.602;14.16
1553639742;13.672;48.34;40.039;26.855;20.508
1553639742;27.344;44.434;38.086;15.137;7.812
1553639742;17.09;47.852;28.32;3.906;0.488
1553639742;0.488;48.828;28.32;1.465;8.789
1553639742;-5.371;43.945;33.203;4.883;11.23
1553639742;0.488;45.41;37.598;-1.953;7.812
1553639742;8.301;49.805;39.062;-15.625;3.418
1553639742;-2.441;54.199;30.762;-10.254;1.465
1553639742;-2.441;53.711;26.367;3.906;4.883
1553639742;5.371;53.223;29.785;9.277;3.906
1553639742;16.113;51.758;30.762;6.836;-0.488
1553639742;41.016;48.34;30.762;4.883;-2.93
1553639742;22.949;47.852;33.203;3.906;-1.465
1553639742;-5.371;46.875;34.18;2.441;2.441
1553639742;-2.441;47.852;33.203;-8.789;-2.441
1553639742;-16.602;46.387;27.344;-12.695;-11.23
1553639742;-25.391;46.387;27.832;12.695;-3.418
1553639742;-22.949;44.434;26.855;33.203;-0.488
1553639742;-15.137;43.457;27.344;18.066;-4.395
1553639742;2.441;40.527;31.738;-7.812;0.977
1553639742;10.742;38.086;33.203;-6.348;13.672
1553639742;10.254;43.457;33.691;1.953;13.672
1553639742;7.812;42.969;30.762;-1.465;2.93
1553639742;10.254;38.086;32.227;-4.395;8.301
1553639742;7.812;35.156;29.297;-9.766;9.766
1553639742;7.324;37.109;29.297;-4.395;4.883
1553639742;1.953;40.039;29.785;11.719;10.742
1553639742;-3.418;43.457;29.297;9.766;10.742
1553639742;13.184;45.41;28.32;20.996;8.789
1553639742;20.508;37.598;28.809;40.527;18.555
1553639742;15.137;34.18;34.668;36.133;20.996
1553639742;18.555;39.551;33.691;23.438;14.16
1553639742;23.926;37.598;25.391;16.113;8.301
1553639742;12.695;33.203;25.391;3.418;9.766
1553639742;-2.93;32.715;34.18;16.113;11.719
1553639742;7.324;32.227;35.645;27.344;17.09
1553639742;15.625;31.25;36.133;17.09;26.855
1553639742;16.602;31.25;31.738;23.438;24.414
1553639742;21.973;29.297;27.832;25.879;22.461
1553639742;22.949;30.762;27.832;15.137;22.461
1553639742;18.555;34.18;26.855;7.324;20.508
1553639742;24.414;32.227;27.344;20.02;19.531
1553639742;19.531;34.18;32.715;28.32;21.484
1553639742;26.367;35.645;31.738;21.484;22.461
1553639742;39.062;32.715;25.879;21.484;23.926
1553639742;29.297;34.18;25.391;32.715;26.855
1553639742;24.414;33.203;31.738;33.203;29.785
1553639742;33.203;29.297;35.156;21.973;26.855
1553639742;33.691;26.855;30.762;24.414;11.23
1553639742;7.812;23.926;26.855;20.508;8.789
1553639742;3.906;28.809;30.273;16.602;18.066
1553639742;24.902;37.109;31.25;25.879;20.02
1553639742;33.691;37.109;28.809;20.02;18.066
1553639742;27.344;36.133;26.367;12.695;17.578
1553639742;29.785;38.574;30.273;20.02;20.996
1553639742;32.227;36.133;32.227;31.738;25.391
1553639742;21.973;27.832;32.715;29.297;22.461
1553639742;25.391;27.832;30.762;33.691;22.461
1553639742;42.48;30.762;27.344;57.129;31.25
1553639742;36.621;33.691;28.809;69.336;37.109
1553639742;29.297;31.738;32.715;41.504;36.133
1553639742;42.969;28.809;32.227;20.508;37.109
1553639742;39.551;35.645;31.25;18.066;34.668
1553639742;34.18;37.598;32.227;15.137;39.062
1553639742;37.109;33.203;26.367;16.113;41.016
1553639742;27.832;36.621;26.367;34.668;29.297
1553639742;36.621;38.086;32.227;34.18;23.438
1553639742;35.156;29.785;35.156;10.742;27.832
1553639742;10.742;24.902;40.039;25.391;35.645
1553639742;30.273;26.367;40.527;35.156;39.062
1553639742;41.504;30.273;36.621;23.926;30.762
1553639742;29.297;33.203;32.227;21.484;26.367
1553639742;44.922;38.574;29.785;17.578;37.109
1553639742;52.246;39.062;29.785;17.578;33.691
1553639742;37.109;29.785;35.156;28.32;21.973
1553639742;36.133;23.926;41.504;38.086;16.113
1553639742;34.668;25.391;41.016;58.105;16.602
1553639742;22.949;31.738;36.621;60.547;19.043
1553639742;48.828;35.645;33.203;27.832;22.461
1553639742;39.551;33.691;34.668;17.09;27.832
1553639742;13.672;35.156;37.109;22.949;30.762
1553639742;43.945;41.504;31.738;27.832;36.133
1553639742;55.176;42.48;23.438;36.621;42.48
1553639742;34.18;39.062;26.855;37.598;41.016
1553639742;37.598;37.598;34.668;53.711;40.527
1553639742;38.574;32.227;31.738;47.852;44.434
1553639742;31.25;31.25;31.738;33.203;43.457
1553639742;28.809;33.203;35.156;47.363;36.621
1553639742;25.391;33.203;33.203;33.691;30.762
1553639742;20.508;33.203;34.18;8.301;28.809
1553639742;22.949;31.738;36.621;16.113;24.414
1553639742;32.227;32.715;34.18;27.832;20.02
1553639742;25.879;31.738;28.809;11.23;14.648
1553639742;20.508;32.715;29.785;13.184;12.695
1553639742;30.273;35.645;26.855;35.156;13.184
1553639742;31.738;33.691;25.391;45.41;10.742
1553639742;17.578;29.785;29.785;26.855;5.859
1553639742;11.23;27.832;34.668;23.438;11.23
1553639742;25.879;26.855;35.156;26.367;20.508
1553639742;34.18;25.391;33.203;16.113;20.996
1553639742;35.645;32.715;30.762;19.531;27.344
1553639742;35.645;41.016;24.414;16.602;36.133
1553639742;27.832;40.039;22.949;29.297;32.715
1553639742;17.578;36.621;29.297;26.855;24.902
1553639742;13.672;35.156;33.691;17.09;28.32
1553639742;31.738;34.18;31.25;31.25;38.086
1553639742;29.297;32.715;27.344;29.297;36.133
1553639742;8.789;30.273;30.762;31.25;26.367
1553639742;6.836;25.879;33.691;32.227;20.02
1553639742;6.836;27.832;31.25;18.066;18.555
1553639742;23.926;37.109;31.738;21.973;25.391
1553639742;32.227;38.086;34.18;27.832;28.809
1553639742;31.738;33.203;36.621;26.855;22.949
1553639742;39.062;25.391;40.039;41.992;17.09
1553639742;29.785;21.973;39.062;63.477;14.648
1553639742;13.184;28.32;35.645;45.41;12.695
1553639742;6.348;32.715;29.297;15.625;4.883
1553639742;24.414;38.574;24.902;13.184;7.812
1553639742;36.133;40.039;29.785;19.043;17.09
1553639742;26.367;32.715;30.762;14.16;24.414
1553639742;14.16;30.762;31.738;8.789;23.926
1553639742;11.719;32.715;31.25;29.785;23.926
1553639742;15.625;39.062;26.855;51.27;38.574
1553639742;32.715;42.969;26.367;34.18;50.781
1553639742;27.832;41.016;25.391;5.371;43.945
1553639742;5.371;36.621;28.809;5.371;30.273
1553639742;19.043;30.762;30.762;18.555;36.621
1553639742;31.738;31.25;29.785;23.438;48.34
1553639742;26.367;34.18;32.227;37.109;47.852
1553639742;29.785;33.691;35.156;36.621;44.922
1553639742;33.203;33.203;34.18;24.414;33.203
1553639742;25.879;33.691;31.738;19.531;30.762
1553639742;32.715;35.645;29.297;22.461;34.18
1553639742;31.738;40.527;27.344;30.762;18.066
1553639742;14.16;32.227;26.367;22.461;13.184
1553639742;2.441;25.391;27.832;16.113;19.531
1553639742;9.766;31.25;25.879;29.297;19.043
1553639743;14.16;33.691;16.602;35.645;14.16
1553639743;7.324;28.809;16.602;30.762;2.441
1553639743;13.672;24.414;25.391;23.438;4.395
1553639743;23.438;20.996;29.785;23.926;22.461
1553639743;32.227;20.508;28.809;30.762;24.414
1553639743;31.738;29.785;23.926;45.41;23.926
1553639743;27.344;38.086;18.066;38.574;29.785
1553639743;29.297;40.527;15.137;17.09;31.25
1553639743;33.691;39.062;14.648;29.785;27.344
1553639743;31.25;35.156;17.578;39.551;21.973
1553639743;27.832;32.227;21.973;18.066;29.785
1553639743;20.996;28.32;20.996;9.277;31.738
1553639743;20.508;30.762;21.973;23.438;28.809
1553639743;33.691;32.227;19.043;28.809;27.832
1553639743;31.25;31.25;20.508;33.203;23.926
1553639743;29.297;32.715;24.902;43.945;17.578
1553639743;37.598;30.762;24.902;45.41;28.32
1553639743;46.387;29.297;28.32;44.434;41.016
1553639743;39.062;30.762;27.832;54.688;36.621
1553639743;36.133;32.715;22.949;50.293;36.621
1553639743;42.48;32.227;21.484;41.504;33.691
1553639743;40.527;35.156;24.414;44.922;27.832
1553639743;41.992;33.691;27.832;34.18;24.902
1553639743;46.875;27.832;30.273;22.461;23.926
1553639743;46.875;29.297;29.297;30.762;31.25
1553639743;36.621;35.645;25.391;42.48;39.062
1553639743;19.531;31.25;22.949;34.18;36.621
1553639743;21.973;21.484;29.785;38.574;37.598
1553639743;35.156;18.555;36.621;62.012;51.27
1553639743;36.621;20.996;32.715;49.805;49.805
1553639743;28.809;24.414;29.297;24.902;35.156
1553639743;35.645;25.879;27.832;22.461;35.645
1553639743;45.898;22.949;24.414;43.945;38.086
1553639743;46.387;21.973;25.391;49.805;44.434
1553639743;37.598;25.879;25.879;39.551;46.875
1553639743;39.062;27.344;25.391;41.504;42.969
1553639743;42.969;28.32;25.879;30.762;37.109
1553639743;55.176;26.367;23.926;33.691;37.109
1553639743;53.711;22.949;19.043;36.133;33.691
1553639743;24.902;21.484;21.484;28.809;19.531
1553639743;17.578;22.949;25.391;43.945;22.461
1553639743;23.438;21.484;21.484;45.898;31.25
1553639743;20.02;17.578;20.996;39.062;29.785
1553639743;26.367;22.461;25.391;47.852;27.832
1553639743;37.598;25.879;23.438;60.059;27.344
1553639743;45.898;28.32;22.949;56.152;35.645
1553639743;46.875;32.715;24.414;39.551;43.945
1553639743;39.062;29.785;22.461;20.996;36.133
1553639743;39.062;27.344;22.949;13.672;30.762
1553639743;33.203;28.809;21.973;30.273;30.273
1553639743;22.461;27.832;23.926;36.621;32.715
1553639743;28.809;30.273;25.879;19.531;35.645
1553639743;28.809;30.273;23.926;20.02;37.109
1553639743;34.18;30.762;24.414;33.691;40.527
1553639743;54.199;32.227;25.391;50.781;44.922
1553639743;49.805;29.297;23.926;53.711;41.992
1553639743;37.598;30.273;26.367;49.805;37.109
1553639743;39.062;32.227;27.832;38.086;35.156
1553639743;25.879;26.367;24.902;34.668;29.297
1553639743;22.949;24.414;24.414;28.32;25.391
1553639743;30.762;28.809;22.949;19.043;19.043
1553639743;21.973;31.738;20.508;39.062;15.137
1553639743;26.855;31.738;25.391;35.645;27.344
1553639743;29.297;31.738;32.227;23.926;41.016
1553639743;35.156;30.762;32.715;30.273;41.504
1553639743;37.598;31.25;30.762;31.25;34.18
1553639743;31.25;34.668;26.367;23.926;25.391
1553639743;38.086;37.109;20.508;30.273;32.227
1553639743;22.949;38.086;18.555;37.109;39.062
1553639743;23.926;35.645;29.297;44.434;36.133
1553639743;34.18;32.227;38.086;34.668;31.738
1553639743;29.297;35.645;30.273;20.508;31.738
1553639743;27.344;37.598;24.902;14.16;34.18
1553639743;23.926;35.156;30.273;26.367;28.809
1553639743;27.344;31.25;34.18;45.41;32.227
1553639743;41.992;33.203;31.738;44.434;38.086
1553639743;55.176;43.945;28.809;41.992;37.598
1553639743;44.922;44.434;25.391;34.668;37.598
1553639743;41.504;36.621;27.832;44.434;39.551
1553639743;38.086;35.156;31.25;46.875;39.551
1553639743;30.273;30.273;29.297;37.598;37.598
1553639743;41.992;23.438;32.227;40.527;36.133
1553639743;37.109;24.902;36.133;34.668;38.086
1553639743;27.344;31.25;29.785;41.016;34.18
1553639743;31.25;36.621;23.926;51.27;33.203
1553639743;33.691;31.738;24.902;55.176;41.016
1553639743;41.992;21.973;29.785;57.129;41.504
1553639743;44.922;22.461;31.25;38.574;39.062
1553639743;45.898;28.32;32.227;32.715;50.293
1553639743;55.664;31.738;31.25;55.664;66.895
1553639743;61.035;30.762;30.273;66.895;62.988
1553639743;49.316;23.438;33.203;52.734;57.617
1553639743;44.434;20.996;30.762;41.016;66.895
1553639743;55.176;26.855;27.832;42.969;66.895
1553639743;51.27;30.762;29.297;43.457;57.617
1553639743;41.504;29.785;32.227;46.387;52.734
1553639743;41.504;30.273;30.273;51.758;45.898
1553639743;43.457;32.227;29.785;50.781;40.039
1553639743;40.039;32.227;33.691;45.898;37.109
1553639743;34.668;33.691;34.18;34.668;33.203
1553639743;37.109;34.668;33.203;37.598;35.156
1553639743;34.18;30.762;31.738;55.664;42.48
1553639743;39.062;33.691;30.762;61.523;41.504
1553639743;51.758;35.645;29.297;48.34;41.504
1553639743;49.316;30.273;30.273;44.434;42.969
1553639743;41.016;28.32;33.203;45.898;48.828
1553639743;26.855;32.227;32.715;34.18;52.734
1553639743;29.297;31.738;31.25;32.715;46.387
1553639743;37.109;28.809;30.762;43.457;47.363
1553639743;45.41;30.762;30.273;38.574;49.805
1553639743;52.246;29.297;28.32;37.598;46.387
1553639743;39.551;28.32;27.344;30.273;43.457
1553639743;21.973;32.227;26.367;24.414;41.016
1553639743;30.762;33.691;24.902;28.809;37.598
1553639743;47.363;33.691;24.902;34.18;44.434
1553639743;38.086;37.598;28.32;41.016;46.387
1553639743;35.156;39.551;31.738;48.34;42.48
1553639743;35.645;38.086;31.25;51.27;36.621
1553639743;40.039;37.598;32.227;47.363;32.715
1553639743;35.156;36.621;29.785;46.387;29.785
1553639743;26.855;39.062;25.391;36.621;25.391
1553639743;26.367;40.527;27.832;24.902;28.809
1553639743;28.809;38.574;29.297;26.855;37.109
1553639743;41.504;41.016;23.926;36.621;46.387
1553639743;50.293;40.039;21.484;42.48;40.527
1553639743;45.898;35.156;29.785;40.527;24.414
1553639743;33.203;33.203;32.227;53.711;29.785
1553639743;36.621;34.668;30.762;63.965;46.875
1553639743;48.828;40.527;33.691;51.27;47.852
1553639743;55.176;37.109;34.668;51.758;44.922
1553639743;49.805;32.715;31.25;60.547;54.199
1553639743;35.156;33.691;28.32;50.781;59.57
1553639743;24.414;32.715;30.273;44.434;45.41
1553639743;29.297;30.762;28.809;47.363;36.133
1553639743;53.711;26.367;27.344;51.27;47.363
1553639743;54.688;23.926;26.855;53.223;58.594
1553639743;47.363;22.949;25.879;50.293;54.688
1553639743;39.062;22.461;31.738;58.105;44.922
1553639743;41.504;20.996;30.762;63.477;47.852
1553639743;54.199;16.602;28.809;62.988;59.57
1553639743;51.27;15.625;29.297;57.617;55.664
1553639743;53.711;14.648;30.273;62.5;42.48
1553639743;62.988;12.207;37.109;80.078;48.828
1553639743;66.895;13.672;35.645;70.801;62.012
1553639743;68.848;23.438;31.25;58.594;62.012
1553639743;69.824;27.344;32.715;55.176;50.293
1553639743;59.57;20.508;34.18;58.594;45.41
1553639743;52.734;19.043;32.227;74.219;51.27
1553639743;54.688;23.926;35.645;77.637;62.012
1553639743;63.965;25.879;39.551;76.66;65.43
1553639743;73.73;25.391;39.551;91.309;60.547
1553639743;67.871;26.367;38.086;89.355;61.523
1553639743;57.129;27.832;37.598;63.965;62.5
1553639743;46.387;29.297;38.086;61.523;56.641
1553639743;48.34;26.855;33.203;66.406;52.246
1553639743;38.574;24.414;33.203;48.828;54.688
1553639743;45.898;22.461;33.203;41.504;56.641
1553639743;56.641;25.391;32.227;42.48;60.059
1553639743;45.41;31.25;34.18;57.617;58.105
1553639743;45.41;25.879;34.668;66.406;54.199
1553639743;47.363;25.879;33.203;50.781;52.734
1553639743;43.457;30.762;35.645;56.152;50.781
1553639743;36.133;32.715;40.039;83.008;42.969
1553639743;51.27;32.715;41.016;74.219;39.062
1553639743;52.734;29.297;42.969;38.086;45.898
1553639743;26.855;27.832;41.016;28.32;49.316
1553639743;25.879;31.25;36.133;22.461;42.969
1553639743;21.484;39.062;31.738;12.695;35.156
1553639743;26.855;46.875;26.855;22.461;32.227
1553639743;48.828;54.688;26.855;33.203;32.227
1553639743;42.48;54.199;33.691;31.25;30.273
1553639743;20.508;46.387;39.062;27.832;22.461
1553639743;19.043;46.875;35.645;36.133;16.113
1553639743;25.879;54.199;27.344;39.062;23.926
1553639743;21.484;54.199;24.902;31.25;22.949
1553639743;20.508;48.34;32.715;33.203;14.648
1553639743;13.184;46.875;37.598;19.531;21.484
1553639743;6.836;50.781;35.156;7.324;22.461
1553639743;9.277;54.688;30.762;12.695;16.602
1553639743;14.648;59.57;26.367;18.555;20.508
1553639743;19.043;67.383;20.996;11.719;22.461
1553639743;13.184;62.5;21.973;7.812;8.789
1553639743;10.254;49.805;27.832;11.23;7.324
1553639743;7.324;47.852;35.645;8.789;17.09
1553639743;21.484;51.758;34.18;-0.488;3.418
1553639743;26.367;56.641;27.832;-0.488;-13.184
1553639743;1.953;60.059;24.902;8.789;-13.672
1553639743;2.93;62.012;25.391;6.836;0
1553639743;19.043;61.523;31.738;8.789;12.695
1553639743;5.859;57.129;36.133;11.719;8.789
1553639743;-3.418;59.082;27.344;-2.93;5.371
1553639743;6.348;69.336;19.531;-2.93;15.137
1553639743;10.254;66.895;21.484;5.371;9.766
1553639743;2.93;57.129;28.32;-3.418;-9.277
1553639743;-18.066;54.199;33.203;-4.395;-7.324
1553639743;-16.602;50.781;36.133;4.883;1.953
1553639743;-6.836;50.781;28.809;10.742;-1.465
1553639743;-0.488;53.223;22.461;10.254;-5.859
1553639743;-3.906;55.176;24.414;-1.953;-1.953
1553639743;-7.324;49.805;27.344;7.324;1.953
1553639743;1.465;42.48;29.785;22.949;6.348
1553639743;5.371;41.016;32.715;8.789;4.395
1553639743;-7.812;44.434;28.32;-6.836;-9.766
1553639743;-19.043;47.852;22.461;-19.043;-23.438
1553639743;-11.23;47.363;20.996;-17.578;-16.602
1553639743;-0.488;47.363;20.508;-4.883;-3.418
1553639743;5.859;47.363;17.09;6.348;4.883
1553639743;1.465;46.387;19.531;7.812;4.883
1553639743;-1.953;42.969;29.785;2.441;-0.488
1553639743;14.16;39.062;36.133;-4.395;-2.441
1553639743;9.766;40.039;36.133;-0.488;-2.441
1553639743;-11.719;38.086;33.203;2.441;-8.789
1553639743;-17.578;39.062;29.297;-6.836;-14.16
1553639743;-8.789;41.992;21.973;2.441;-10.254
1553639743;4.395;45.41;17.578;19.043;-6.348
1553639743;0.977;48.828;22.461;15.137;-6.348
1553639743;0;42.969;28.809;6.836;3.906
1553639743;2.93;38.574;30.273;1.953;13.184
1553639743;10.254;42.48;27.832;4.395;15.625
1553639743;22.949;47.852;20.02;12.207;23.926
1553639743;16.113;47.363;16.602;3.906;24.902
1553639743;7.812;42.969;20.02;-1.465;24.902
1553639743;18.555;44.922;25.879;6.836;30.273
1553639743;13.672;41.992;28.32;11.719;23.438
1553639743;4.395;35.645;30.762;26.367;15.137
1553639743;10.254;32.715;33.203;22.949;19.531
1553639743;12.695;32.227;30.273;10.742;19.531
1553639743;20.996;30.273;28.809;14.16;14.648
1553639743;30.762;33.691;32.715;25.879;20.508
1553639743;23.438;31.25;34.18;41.992;29.297
1553639743;28.809;30.762;30.273;34.18;27.832
1553639743;33.203;36.621;24.414;13.184;20.02
1553639743;33.691;37.109;24.414;10.742;17.09
1553639743;28.809;40.527;25.391;16.113;14.648
1553639743;9.766;40.039;21.484;21.973;14.16
1553639743;21.973;34.668;25.391;36.621;20.996
1553639743;36.133;34.668;31.25;41.016;26.855
1553639743;37.598;36.621;31.25;23.926;26.855
1553639743;25.391;37.598;32.715;23.438;23.438
1553639743;21.484;34.668;32.715;37.598;23.438
1553639743;29.785;28.32;28.809;33.691;30.273
1553639743;28.32;31.25;23.438;27.832;36.621
1553639743;36.133;36.133;19.531;42.969;42.48
1553639743;44.434;34.18;18.555;53.223;42.48
1553639743;39.062;31.25;23.926;41.992;38.574
1553639743;29.297;25.879;29.785;32.227;34.18
1553639743;29.297;26.367;32.227;45.41;41.504
1553639743;48.34;29.297;34.18;59.57;46.875
1553639743;42.969;26.367;30.273;32.715;31.25
1553639743;19.531;30.273;25.391;20.508;18.555
1553639743;28.809;35.156;24.902;41.992;16.113
1553639743;41.504;33.691;23.926;42.969;18.555
1553639743;44.922;32.227;26.367;25.391;20.02
1553639743;40.039;32.227;26.855;16.113;15.625
1553639743;31.738;30.273;25.879;23.926;16.602
1553639743;31.738;31.25;28.809;36.621;17.578
1553639744;26.855;34.668;30.273;42.48;17.09
1553639744;12.207;36.621;33.691;25.879;20.508
1553639744;19.043;36.621;35.645;25.391;22.949
1553639744;27.344;33.203;31.25;28.32;25.879
1553639744;29.297;28.809;29.785;25.391;27.344
1553639744;32.715;31.25;30.762;33.691;25.391
1553639744;36.133;29.785;28.809;32.227;30.273
1553639744;30.762;24.414;28.32;28.809;40.039
1553639744;19.531;22.949;33.203;30.762;38.086
1553639744;20.508;24.414;37.109;46.875;29.785
1553639744;38.086;25.391;37.109;45.898;30.762
1553639744;34.18;26.367;34.18;31.738;28.32
1553639744;26.855;28.809;32.715;33.203;24.902
1553639744;36.133;28.809;32.227;35.645;30.273
1553639744;39.551;27.832;28.809;39.062;33.691
1553639744;48.828;28.809;27.832;47.363;34.668
1553639744;44.434;25.879;23.926;41.504;33.691
1553639744;29.297;22.461;25.879;34.18;25.879
1553639744;31.738;25.391;29.297;33.691;20.508
1553639744;40.039;26.367;29.785;25.879;28.32
1553639744;31.738;27.832;32.227;38.086;34.668
1553639744;34.18;28.32;32.715;35.645;32.227
1553639744;41.016;24.414;34.668;21.484;28.32
1553639744;29.297;26.855;33.691;34.18;36.621
1553639744;30.273;25.879;35.156;49.316;44.922
1553639744;51.27;21.973;39.062;69.824;53.223
1553639744;66.406;24.414;41.992;59.082;51.758
1553639744;46.387;30.762;41.992;36.133;39.062
1553639744;35.156;33.691;32.715;37.598;37.598
1553639744;41.992;35.156;24.414;39.062;44.922
1553639744;41.992;34.668;28.809;41.016;46.875
1553639744;38.574;27.344;32.227;35.156;43.945
1553639744;38.086;28.32;30.762;32.227;46.875
1553639744;51.27;33.203;30.762;54.199;54.199
1553639744;52.734;35.645;28.32;60.547;48.34
1553639744;49.316;34.668;25.879;46.875;40.527
1553639744;40.527;30.273;26.367;41.504;36.621
1553639744;34.668;28.809;25.391;35.156;30.273
1553639744;48.828;25.391;23.438;27.832;24.414
1553639744;42.969;23.438;25.391;23.926;21.484
1553639744;18.555;24.902;27.832;56.641;21.484
1553639744;15.625;25.879;28.809;75.684;25.879
1553639744;24.414;27.344;28.32;36.133;34.18
1553639744;34.668;29.297;31.25;10.254;35.645
1553639744;39.062;29.785;33.203;16.113;39.551
1553639744;36.133;30.762;32.715;25.879;41.016
1553639744;30.762;33.203;31.738;27.344;37.109
1553639744;26.367;33.203;24.902;33.203;37.109
1553639744;39.062;33.691;21.973;36.621;50.293
1553639744;37.598;32.227;30.762;35.645;49.316
1553639744;32.227;26.367;38.574;41.016;32.227
1553639744;60.547;25.879;37.598;31.738;29.297
1553639744;55.176;26.367;36.621;26.855;32.715
1553639744;23.438;25.391;28.809;22.461;32.715
1553639744;16.602;31.25;23.926;24.902;29.297
1553639744;0;31.25;31.25;20.02;21.484
1553639744;-0.488;25.879;39.062;15.137;28.32
1553639744;20.02;30.762;41.016;22.949;34.18
1553639744;4.395;38.574;34.18;12.695;14.16
1553639744;-8.789;40.039;26.367;-0.977;3.418
1553639744;3.906;44.434;22.461;-4.883;18.066
1553639744;14.16;52.246;19.043;-3.906;18.066
1553639744;26.855;50.781;26.855;6.348;13.672
1553639744;12.695;46.387;36.133;9.766;12.695
1553639744;-7.324;46.875;32.715;-6.836;2.93
1553639744;0.977;45.898;26.367;-15.625;4.395
1553639744;-3.906;45.898;25.879;-12.695;9.766
1553639744;-5.859;48.34;29.297;-2.441;0.977
1553639744;-2.441;47.363;36.621;4.883;-4.883
1553639744;-7.324;39.551;39.062;4.395;-8.789
1553639744;-7.812;40.039;34.668;3.906;-15.137
1553639744;-11.719;50.781;28.32;-14.16;-9.766
1553639744;-11.23;60.059;23.926;-37.109;-8.301
1553639744;-16.602;57.129;28.32;-32.715;-15.137
1553639744;-17.09;49.805;37.598;-5.859;-10.254
1553639744;-15.625;44.922;43.945;3.906;-6.348
1553639744;-25.391;46.387;40.527;-19.043;-17.578
1553639744;-30.762;52.734;31.738;-22.461;-21.484
1553639744;-26.855;54.199;29.785;-23.438;-10.742
1553639744;-22.461;56.152;33.691;-10.254;-0.977
1553639744;-9.766;58.105;32.227;-4.395;7.812
1553639744;11.719;63.477;24.414;-8.789;14.16
1553639744;-4.883;64.453;21.973;-2.93;0.488
1553639744;-18.066;53.223;28.32;-14.16;-7.812
1553639744;-12.695;46.387;34.18;-3.906;8.789
1553639744;-1.465;49.316;31.738;14.648;17.578
1553639744;17.09;42.969;26.367;3.906;4.395
1553639744;16.113;33.691;29.785;20.02;1.465
1553639744;20.508;32.715;37.109;41.016;21.484
1553639744;29.297;31.25;37.598;30.762;28.32
1553639744;20.996;34.668;31.738;21.484;12.207
1553639744;19.531;36.133;27.832;16.113;15.625
1553639744;31.25;34.668;25.391;22.949;30.273
1553639744;34.18;32.227;25.391;35.645;32.227
1553639744;39.062;31.25;28.809;35.156;26.367
1553639744;30.762;37.109;22.949;34.18;21.484
1553639744;17.09;37.109;17.09;43.457;20.996
1553639744;26.367;27.832;24.902;44.434;28.809
1553639744;28.809;20.02;33.203;37.109;25.391
1553639744;32.715;22.461;32.227;30.273;22.949
1553639744;45.898;26.855;31.25;43.945;34.668
1553639744;33.203;29.297;34.18;56.641;37.109
1553639744;32.715;33.691;31.738;41.016;33.203
1553639744;52.246;37.109;29.785;31.25;41.016
1553639744;48.828;38.574;28.809;24.902;42.48
1553639744;31.25;32.227;28.32;23.438;41.016
1553639744;31.738;28.809;31.25;27.344;44.434
1553639744;37.598;33.691;30.762;24.414;40.039
1553639744;36.133;35.645;31.738;27.344;33.203
1553639744;31.25;33.691;33.203;41.504;29.785
1553639744;31.738;33.691;31.738;40.039;28.32
1553639744;26.367;35.645;31.25;32.227;16.113
1553639744;21.484;33.691;32.715;39.551;13.184
1553639744;20.02;27.832;35.156;34.18;14.16
1553639744;23.438;29.785;34.18;13.672;13.184
1553639744;20.996;32.715;29.785;8.301;16.602
1553639744;21.973;32.227;27.344;20.508;23.926
1553639744;25.879;34.18;25.879;25.391;30.762
1553639744;33.691;36.133;25.879;31.25;40.039
1553639744;40.527;36.621;24.902;40.527;42.48
1553639744;26.855;36.133;25.879;33.203;29.785
1553639744;23.926;29.785;33.203;24.414;20.996
1553639744;27.344;24.414;37.598;44.434;27.832
1553639744;39.062;28.809;36.621;56.152;37.598
1553639744;49.805;31.25;34.668;57.617;40.527
1553639744;53.223;27.344;31.738;62.012;38.574
1553639744;64.941;26.855;30.762;57.129;42.969
1553639744;50.781;28.32;27.832;51.758;37.109
1553639744;45.898;29.785;22.461;33.203;30.273
1553639744;50.293;30.273;19.531;33.203;38.086
1553639744;45.898;27.344;26.855;48.34;47.852
1553639744;53.711;27.832;30.273;46.387;56.152
1553639744;53.711;27.832;29.785;40.527;55.176
1553639744;59.082;29.297;27.832;52.246;53.711
1553639744;65.918;33.203;28.32;58.594;55.664
1553639744;56.152;31.738;29.297;53.223;56.641
1553639744;47.363;31.738;25.879;50.781;55.176
1553639744;47.852;34.18;28.32;51.27;59.082
1553639744;52.734;29.785;29.297;53.223;60.059
1553639744;45.41;25.879;31.25;44.434;52.246
1553639744;44.434;26.367;33.203;40.039;51.758
1553639744;52.246;27.344;33.203;46.387;41.504
1553639744;50.293;29.297;29.785;44.922;27.344
1553639744;48.828;29.785;26.855;50.781;28.809
1553639744;41.992;32.227;29.297;57.617;29.785
1553639744;37.598;35.156;28.809;58.594;27.832
1553639744;37.109;31.25;28.32;51.758;31.25
1553639744;28.32;28.32;29.785;49.805;30.762
1553639744;45.41;30.273;30.762;51.758;31.25
1553639744;51.27;31.738;29.785;24.902;36.133
1553639744;37.109;31.25;29.297;17.578;34.668
1553639744;44.922;31.738;28.809;28.809;38.086
1553639744;45.41;36.621;26.855;36.133;44.434
1553639744;41.504;37.598;27.344;41.992;44.922
1553639744;53.711;33.691;25.879;42.48;41.016
1553639744;55.664;37.598;26.855;43.457;45.41
1553639744;41.016;43.457;29.297;45.41;49.805
1553639744;32.715;41.504;35.156;38.086;44.922
1553639744;37.598;35.156;40.527;39.062;41.504
1553639744;38.086;31.25;40.527;50.293;44.434
1553639744;34.18;35.156;36.621;51.758;42.48
1553639744;43.457;38.574;33.203;37.598;44.922
1553639744;47.363;40.527;35.645;30.762;48.34
1553639744;39.062;41.016;33.691;37.598;41.992
1553639744;32.715;39.062;35.156;36.133;40.527
1553639744;28.32;39.551;37.598;31.25;38.574
1553639744;28.32;41.016;29.785;18.066;31.25
1553639744;34.668;47.852;21.973;20.996;33.203
1553639744;39.062;53.711;23.926;30.273;33.691
1553639744;30.273;49.316;36.133;30.273;22.949
1553639744;23.926;45.898;39.551;19.043;17.09
1553639744;37.598;45.41;34.668;10.742;14.16
1553639744;41.504;42.48;39.062;15.137;17.578
1553639744;38.086;36.133;44.434;34.668;31.25
1553639744;42.48;33.691;45.898;48.828;38.574
1553639744;27.344;36.621;42.969;34.18;19.531
1553639744;1.953;41.016;38.086;6.348;0.977
1553639744;12.207;46.387;30.762;2.93;12.695
1553639744;22.949;54.688;28.809;12.695;24.414
1553639744;31.25;57.129;31.738;22.949;25.391
1553639744;41.992;47.852;34.668;29.297;24.902
1553639744;41.504;48.34;38.086;24.414;27.832
1553639744;26.855;54.688;35.156;23.926;25.879
1553639744;27.832;54.688;31.25;11.23;22.949
1553639744;33.691;52.246;31.738;6.348;23.926
1553639744;24.414;50.781;33.691;11.719;16.602
1553639744;26.367;51.758;32.715;15.137;18.555
1553639744;32.227;52.246;32.715;21.973;29.297
1553639744;37.598;49.316;31.25;20.508;23.926
1553639744;44.922;50.293;29.785;30.273;20.508
1553639744;36.621;47.852;30.273;26.855;28.32
1553639744;20.02;44.434;32.715;26.367;29.297
1553639744;19.531;40.527;35.156;23.926;25.391
1553639744;23.926;37.109;37.598;21.973;26.367
1553639744;20.996;42.969;36.133;23.926;21.484
1553639744;26.367;47.852;31.25;20.02;14.16
1553639744;35.645;46.387;33.203;15.137;13.184
1553639744;13.184;42.48;33.691;29.297;7.812
1553639744;7.812;43.945;28.809;53.223;10.742
1553639744;26.855;48.828;30.273;25.879;18.555
1553639744;26.367;49.316;30.273;3.906;19.043
1553639744;26.855;47.363;25.391;7.324;22.949
1553639744;22.461;42.969;21.973;4.883;30.273
1553639744;21.973;38.574;22.949;1.953;36.133
1553639744;19.043;34.18;29.785;0.977;31.25
1553639744;12.207;32.227;38.574;12.695;22.949
1553639744;16.113;36.133;37.598;26.367;21.484
1553639744;17.578;38.574;32.227;19.043;22.461
1553639744;19.043;42.48;25.391;28.32;25.879
1553639744;13.672;41.504;24.414;47.852;21.973
1553639744;13.672;38.086;30.762;26.855;24.414
1553639744;24.414;35.156;36.621;17.09;27.344
1553639744;20.02;33.203;36.133;23.926;19.043
1553639744;10.254;33.691;34.18;17.09;8.789
1553639744;5.371;36.621;33.691;2.93;3.418
1553639744;2.93;39.062;33.203;12.695;7.812
1553639744;14.16;39.062;36.621;29.785;26.855
1553639744;19.043;36.621;39.062;31.25;32.227
1553639744;17.578;41.992;35.645;27.832;25.391
1553639744;26.367;52.246;27.832;32.227;32.227
1553639744;31.738;53.711;24.414;39.062;42.969
1553639744;37.598;50.781;27.832;40.039;41.504
1553639744;41.992;46.875;34.18;34.668;31.25
1553639744;29.297;41.016;38.086;22.461;28.809
1553639744;21.484;37.109;38.574;17.09;37.109
1553639744;19.531;41.992;34.668;26.367;49.316
1553639744;27.344;44.434;30.273;46.875;52.734
1553639744;34.18;41.016;30.273;36.133;42.48
1553639744;18.555;40.527;32.715;25.391;39.551
