timestamps;TP9;AF7;AF8;TP10;Right AUX
1553639319;36.133;38.086;28.809;19.043;31.738
1553639319;48.34;37.109;26.855;28.809;39.551
1553639319;41.504;35.156;25.879;39.551;38.574
1553639319;37.598;35.156;23.926;32.227;46.387
1553639319;42.48;35.156;25.879;29.297;53.223
1553639319;52.246;40.527;28.32;31.25;53.223
1553639319;51.27;41.992;27.344;33.691;59.57
1553639319;36.133;40.527;29.785;40.527;57.129
1553639319;32.227;41.992;32.715;40.039;42.969
1553639319;32.227;41.016;33.691;37.598;38.086
1553639319;32.227;39.062;34.668;48.828;41.992
1553639319;31.25;40.039;36.133;44.434;37.598
1553639319;32.227;35.645;33.203;30.762;34.18
1553639319;31.738;37.598;27.344;26.367;34.668
1553639319;31.738;40.527;28.32;22.461;24.414
1553639319;36.621;40.039;37.109;27.344;24.414
1553639319;34.668;41.016;37.109;29.785;33.691
1553639319;38.574;44.922;36.133;32.227;38.086
1553639319;48.34;45.898;37.598;34.18;35.645
1553639319;40.527;44.922;39.062;37.109;35.156
1553639319;33.691;44.922;38.574;38.086;32.715
1553639319;39.551;44.922;36.133;36.621;24.902
1553639319;36.621;43.457;34.668;37.598;26.367
1553639319;30.273;41.504;32.715;38.086;27.344
1553639319;31.738;41.016;29.785;37.109;30.273
1553639319;37.109;40.527;28.809;39.551;29.785
1553639319;42.48;37.598;28.809;38.574;27.344
1553639319;46.875;36.133;28.32;27.832;25.879
1553639319;54.688;36.133;30.762;40.039;20.508
1553639319;53.223;32.227;31.25;80.566;8.301
1553639319;42.48;32.715;29.297;62.012;4.395
1553639319;30.273;37.109;28.809;8.301;7.324
1553639319;18.066;35.156;28.32;-14.648;6.348
1553639319;8.789;33.691;26.855;-18.066;0.488
1553639320;10.254;34.668;28.809;-10.254;-3.906
1553639320;16.602;35.156;35.645;-1.953;0.977
1553639320;16.602;32.715;35.645;-6.836;2.441
1553639320;17.578;31.738;29.297;-8.301;3.906
1553639320;18.066;30.273;28.809;2.93;7.812
1553639320;17.578;29.785;33.203;9.766;12.695
1553639320;24.902;29.297;35.645;8.301;22.461
1553639320;24.414;26.855;30.273;0.977;25.391
1553639320;20.508;29.785;24.902;1.953;22.461
1553639320;22.461;31.25;26.367;5.859;25.879
1553639320;24.902;26.367;30.762;16.113;30.273
1553639320;36.621;24.902;33.691;28.809;38.086
1553639320;44.434;24.414;33.203;38.574;40.527
1553639320;52.246;23.438;32.227;43.457;51.27
1553639320;54.688;24.414;33.203;39.062;64.453
1553639320;41.504;26.367;34.668;29.785;50.293
1553639320;32.715;26.367;29.297;14.16;38.086
1553639320;41.992;28.809;25.879;24.414;53.711
1553639320;49.805;29.785;25.391;46.387;65.918
1553639320;49.805;23.926;24.414;54.688;69.336
1553639320;57.129;18.555;26.855;50.781;77.637
1553639320;55.176;16.113;28.809;51.27;76.66
1553639320;48.34;17.09;32.715;65.918;64.453
1553639320;55.176;20.02;33.203;69.336;62.5
1553639320;56.152;17.09;34.18;63.477;65.918
1553639320;55.176;16.113;33.203;60.059;63.477
1553639320;60.547;15.137;30.762;64.941;62.988
1553639320;57.617;12.695;30.762;71.289;57.129
1553639320;51.27;13.184;32.227;62.012;57.129
1553639320;46.875;15.137;30.273;50.781;50.781
1553639320;44.922;18.066;31.25;57.129;49.316
1553639320;42.48;18.066;32.715;65.43;51.758
1553639320;41.504;19.531;33.203;60.059;50.781
1553639320;47.852;21.973;33.691;52.246;49.805
1553639320;62.988;19.531;31.25;46.387;39.551
1553639320;63.477;17.09;32.227;54.199;38.574
1553639320;50.781;18.066;33.691;54.199;42.48
1553639320;47.363;16.602;32.227;40.527;37.598
1553639320;41.992;19.043;32.715;52.246;30.273
1553639320;44.434;26.367;38.086;62.012;32.715
1553639320;50.293;26.367;38.086;56.641;34.18
1553639320;46.387;22.949;36.621;58.105;36.133
1553639320;47.363;23.438;38.574;49.805;38.574
1553639320;48.828;23.926;41.016;47.852;36.621
1553639320;42.969;22.949;41.016;44.922;32.715
1553639320;36.621;23.926;37.598;30.273;28.32
1553639320;32.227;24.902;38.086;32.715;30.273
1553639320;32.227;27.344;36.621;40.039;31.25
1553639320;39.062;29.297;30.762;34.668;30.273
1553639320;38.574;25.879;28.809;29.297;31.738
1553639320;33.203;24.902;32.227;23.438;33.203
1553639320;37.109;27.344;32.715;28.32;28.809
1553639320;35.645;28.32;30.762;25.391;25.391
1553639320;37.109;26.367;32.227;12.207;30.273
1553639320;37.109;26.367;34.668;11.719;30.273
1553639320;23.438;25.391;34.18;18.555;24.902
1553639320;26.367;24.414;32.227;21.484;22.949
1553639320;34.18;27.832;32.227;20.996;26.367
1553639320;28.809;26.367;29.297;24.414;29.785
1553639320;20.02;23.926;25.879;25.391;27.832
1553639320;20.02;27.832;24.414;22.949;20.508
1553639320;25.391;27.832;26.855;24.902;18.066
1553639320;28.809;26.367;26.855;18.555;18.555
1553639320;31.738;30.273;24.902;11.719;16.113
1553639320;30.273;32.715;28.809;21.484;15.625
1553639320;26.367;30.273;28.809;15.137;13.184
1553639320;36.133;31.738;24.902;4.883;14.16
1553639320;33.203;31.25;26.367;9.277;20.508
1553639320;19.531;29.785;29.297;7.324;24.902
1553639320;21.973;30.762;28.809;10.742;30.273
1553639320;30.762;28.32;31.738;20.02;37.109
1553639320;33.203;26.367;35.645;26.855;41.992
1553639320;33.203;25.391;38.574;28.809;42.969
1553639320;33.691;25.879;38.574;25.879;41.992
1553639320;31.738;29.297;36.621;23.438;44.922
1553639320;34.18;25.879;35.645;33.203;48.34
1553639320;36.133;23.438;34.18;40.039;47.363
1553639320;31.738;27.344;37.598;36.133;43.945
1553639320;32.227;27.832;34.668;37.109;43.945
1553639320;40.527;25.879;30.273;41.016;51.758
1553639320;37.598;24.414;31.738;38.086;57.129
1553639320;35.645;22.461;32.715;42.48;56.152
1553639320;35.645;24.414;35.156;40.039;53.223
1553639320;29.785;26.855;33.691;34.668;49.805
1553639320;25.879;25.879;34.668;43.945;50.293
1553639320;28.809;26.855;36.133;45.898;45.898
1553639320;38.086;27.832;32.715;51.27;41.016
1553639320;40.527;25.391;28.809;52.734;43.945
1553639320;33.203;25.391;29.785;48.34;48.828
1553639320;31.738;25.391;30.273;55.664;46.875
1553639320;38.574;24.902;26.855;54.688;44.434
1553639320;38.086;26.855;27.832;46.875;46.387
1553639320;36.133;31.25;29.785;49.316;45.41
1553639320;35.156;30.273;30.762;41.504;45.41
1553639320;41.016;30.273;28.32;31.25;46.387
1553639320;44.434;33.203;31.25;37.109;42.48
1553639320;42.969;33.203;35.156;43.945;41.992
1553639320;44.434;31.25;32.227;46.875;32.227
1553639320;33.691;30.762;31.25;48.34;19.043
1553639320;28.32;32.227;28.32;42.48;18.555
1553639320;33.691;35.156;27.832;36.133;23.438
1553639320;31.738;34.668;30.273;33.691;25.879
1553639320;35.645;34.668;29.785;34.668;18.066
1553639320;35.156;32.715;32.715;33.691;19.043
1553639320;28.809;32.715;35.156;37.109;25.391
1553639320;36.621;39.062;33.203;28.809;25.879
1553639320;42.48;42.48;36.621;20.02;21.484
1553639320;42.969;41.992;40.039;28.32;22.461
1553639320;41.992;42.48;39.062;35.156;26.855
1553639320;37.109;41.992;36.621;54.688;26.855
1553639320;32.715;41.504;39.551;53.711;26.855
1553639320;36.621;41.992;36.621;21.484;30.762
1553639320;38.574;41.504;34.18;12.207;32.227
1553639320;36.621;41.016;35.645;22.949;30.273
1553639320;32.715;39.551;33.691;33.203;32.715
1553639320;35.645;35.645;35.645;33.691;32.715
1553639320;41.016;35.156;39.062;29.785;35.156
1553639320;32.227;37.109;39.551;27.344;39.062
1553639320;33.203;35.645;35.645;18.555;34.18
1553639320;26.855;41.016;34.668;15.137;28.809
1553639320;22.949;43.457;34.18;23.438;30.762
1553639320;32.227;35.156;33.203;24.414;31.25
1553639320;28.32;36.133;34.18;17.578;27.344
1553639320;30.273;38.086;33.691;23.926;22.949
1553639320;42.48;35.645;35.156;29.785;24.414
1553639320;44.434;36.133;34.668;29.785;26.855
1553639320;41.992;38.086;35.156;38.574;28.809
1553639320;34.668;36.133;34.668;45.898;32.715
1553639320;31.25;39.551;36.133;44.922;40.039
1553639320;37.109;40.527;36.621;42.48;46.875
1553639320;34.18;36.621;32.715;53.223;47.852
1553639320;36.133;40.527;33.203;55.176;46.387
1553639320;34.18;37.109;33.203;32.715;38.086
1553639320;29.297;33.691;32.227;29.297;32.715
1553639320;22.461;36.621;32.715;38.086;39.551
1553639320;24.902;37.598;31.25;32.715;42.969
1553639320;39.551;39.062;32.227;28.809;32.715
1553639320;53.223;38.574;35.156;35.645;32.227
1553639320;38.086;34.18;37.109;49.316;35.156
1553639320;30.762;33.203;33.203;54.688;34.18
1553639320;33.691;30.273;30.762;35.645;35.645
1553639320;30.762;31.738;35.645;27.344;35.645
1553639320;40.039;35.645;39.062;44.434;34.668
1553639320;37.598;37.109;43.457;48.828;36.133
1553639320;35.645;37.598;42.969;47.363;36.621
1553639320;39.062;38.574;41.016;49.316;28.32
1553639320;35.645;38.086;40.039;44.434;28.32
1553639320;37.598;38.574;39.062;44.434;32.715
1553639320;42.48;41.992;38.574;41.016;30.762
1553639320;42.969;42.969;38.086;35.645;31.738
1553639320;39.062;38.086;37.598;37.598;35.645
1553639320;44.922;37.109;32.227;45.898;41.992
1553639320;44.434;38.086;30.762;41.992;48.828
1553639320;35.156;35.156;38.574;37.598;42.48
1553639320;30.762;34.668;40.527;39.062;38.086
1553639320;32.715;39.062;35.645;36.621;41.992
1553639320;32.715;40.039;35.156;37.109;37.598
1553639320;24.414;33.203;40.527;37.109;27.832
1553639320;27.344;29.785;38.086;34.668;17.578
1553639320;29.297;29.297;33.691;27.344;11.719
1553639320;31.738;28.809;29.785;28.809;18.555
1553639320;28.32;29.297;27.344;27.832;19.531
1553639320;28.809;33.203;28.809;25.391;11.23
1553639320;46.387;35.156;31.738;27.344;11.719
1553639320;38.574;35.645;30.762;31.25;18.066
1553639320;24.414;33.691;26.367;30.762;20.508
1553639320;29.297;31.25;23.438;28.32;19.531
1553639320;32.227;33.691;23.438;28.809;15.137
1553639320;31.738;34.18;27.832;29.297;15.137
1553639320;38.086;34.668;28.32;34.668;21.973
1553639320;33.691;36.133;26.855;35.156;21.973
1553639320;25.391;33.691;26.367;26.855;22.461
1553639320;26.855;30.762;25.879;18.066;21.973
1553639320;35.156;31.25;28.32;25.879;20.02
1553639320;38.086;31.25;25.879;22.949;15.625
1553639320;28.32;29.297;25.879;16.113;16.113
1553639320;27.832;29.785;30.762;26.367;23.438
1553639320;35.645;27.832;30.273;36.133;25.879
1553639320;39.551;23.438;28.809;30.762;24.902
1553639320;33.691;26.855;29.785;33.203;22.461
1553639320;29.297;31.738;27.832;33.203;19.043
1553639320;25.879;32.227;24.414;23.926;20.02
1553639320;27.832;32.715;25.391;24.414;26.855
1553639320;42.969;33.691;26.367;20.508;21.973
1553639320;43.457;36.621;27.344;22.461;21.973
1553639320;34.18;34.668;29.297;33.203;27.832
1553639320;29.785;31.738;28.32;29.785;29.785
1553639320;29.297;32.715;27.344;28.809;31.738
1553639320;26.367;31.738;29.297;34.668;32.715
1553639320;32.227;32.227;34.668;36.621;30.762
1553639320;37.598;35.645;33.691;36.133;29.297
1553639320;35.645;35.156;31.25;31.738;33.203
1553639320;37.109;31.738;28.809;27.344;36.133
1553639320;34.18;31.25;29.785;31.738;34.18
1553639320;38.574;33.203;33.691;37.598;38.086
1553639320;38.574;32.227;29.297;29.297;37.598
1553639320;33.203;30.273;24.414;24.414;28.32
1553639320;37.109;30.762;26.855;31.738;29.297
1553639320;37.598;31.25;32.227;38.086;34.18
1553639320;34.18;28.809;31.738;39.062;32.715
1553639320;27.832;24.902;26.367;40.039;24.902
1553639320;34.668;26.855;28.809;38.086;21.973
1553639320;38.086;28.809;32.715;32.715;25.391
1553639320;35.156;28.809;30.273;30.273;29.297
1553639320;35.156;29.297;28.32;24.414;28.809
1553639320;39.062;27.344;28.809;18.555;27.832
1553639320;39.062;23.926;28.809;17.578;33.203
1553639320;32.715;23.926;29.297;21.973;35.645
1553639320;28.809;22.461;31.25;24.414;34.668
1553639320;31.738;20.508;29.297;31.738;32.715
1553639320;37.598;20.996;28.809;39.551;33.691
1553639320;43.945;22.461;33.691;46.387;35.645
1553639320;41.992;23.926;36.621;49.805;37.109
1553639320;34.18;24.414;35.645;36.133;41.504
1553639320;32.715;22.461;33.691;25.879;38.086
1553639320;37.598;24.414;31.738;27.832;33.203
1553639320;34.668;27.344;30.762;31.25;32.227
1553639320;28.32;23.926;28.809;25.879;25.879
1553639320;24.902;22.949;32.227;27.344;26.367
1553639320;23.926;26.367;36.133;36.133;33.203
1553639320;28.32;25.879;33.203;30.762;36.621
1553639320;32.715;25.879;33.203;30.273;29.297
1553639320;38.574;26.855;32.715;29.297;21.484
1553639320;43.457;28.32;36.621;27.344;27.344
1553639320;34.668;28.809;41.016;33.691;35.156
1553639320;23.926;27.344;37.109;33.691;34.668
1553639320;32.227;28.809;35.156;32.227;37.109
1553639320;34.668;33.691;34.668;41.016;38.574
1553639320;32.227;36.133;34.668;47.363;38.574
1553639320;35.156;34.668;34.18;54.199;35.156
1553639320;35.156;31.25;34.18;53.223;32.715
1553639320;39.551;29.297;34.18;36.133;35.645
1553639320;39.551;32.715;32.227;35.645;36.133
1553639320;39.062;35.645;34.668;37.109;37.109
1553639320;41.504;33.691;37.109;36.621;38.574
1553639320;35.156;30.762;35.156;33.691;33.203
1553639320;30.273;30.273;33.203;33.691;26.367
1553639320;31.738;31.25;31.738;41.504;26.855
1553639320;32.227;32.227;34.18;34.18;33.203
1553639320;33.691;29.785;34.18;28.809;36.133
1553639320;30.273;23.438;28.32;33.203;35.645
1553639320;24.414;27.344;30.273;39.062;36.621
1553639320;44.434;33.691;28.809;59.082;56.641
1553639320;68.848;38.086;28.32;66.895;77.637
1553639320;52.246;39.551;34.18;38.086;52.734
1553639320;29.297;33.691;35.645;21.484;22.461
1553639320;22.949;26.855;34.668;13.672;13.672
1553639320;10.254;26.855;38.086;13.672;5.859
1553639320;5.371;29.785;36.133;14.648;1.953
1553639320;9.277;31.25;35.156;2.441;1.953
1553639320;-9.766;36.133;35.156;-9.277;-2.93
1553639320;-13.672;36.621;29.785;-20.996;-13.184
1553639320;-9.277;37.598;31.25;-23.926;-14.648
1553639320;-18.066;41.016;29.785;-23.438;-14.16
1553639320;-16.113;42.969;29.297;-17.578;-12.695
1553639320;-12.695;41.992;33.203;-12.695;-9.277
1553639321;-13.672;38.574;32.715;-10.254;-7.812
1553639321;-4.883;40.039;31.25;2.93;-6.348
1553639321;6.836;40.527;32.715;25.879;-0.488
1553639321;4.883;37.598;35.645;24.414;1.465
1553639321;-1.465;37.109;35.156;2.93;-2.93
1553639321;5.371;39.551;33.203;3.906;4.883
1553639321;18.555;39.062;32.227;10.254;15.625
1553639321;7.812;37.598;39.062;9.766;19.531
1553639321;6.348;38.086;40.527;22.461;18.555
1553639321;7.812;39.551;37.109;26.855;13.184
1553639321;2.93;38.574;33.203;20.508;12.695
1553639321;1.465;37.109;32.715;20.02;20.996
1553639321;5.371;33.691;33.691;8.789;19.043
1553639321;13.184;32.715;31.25;0.977;15.137
1553639321;16.113;32.715;29.297;24.414;20.02
1553639321;19.043;27.344;29.785;28.32;25.391
1553639321;11.23;27.344;29.297;16.602;28.809
1553639321;3.418;26.855;29.785;10.742;26.855
1553639321;12.695;29.297;33.203;7.324;33.203
1553639321;24.902;33.203;32.715;12.207;40.039
1553639321;22.949;33.691;36.133;15.625;38.086
1553639321;20.02;35.645;36.621;25.391;38.574
1553639321;13.672;34.668;34.18;29.297;33.691
1553639321;15.625;31.25;31.738;35.156;32.715
1553639321;18.066;28.809;33.691;43.945;37.109
1553639321;15.625;31.738;36.621;42.48;31.738
1553639321;28.32;33.203;35.156;36.133;30.273
1553639321;25.391;36.621;40.039;38.574;37.598
1553639321;15.137;39.062;39.551;39.551;36.621
1553639321;23.438;35.645;36.621;31.25;37.109
1553639321;34.668;33.203;36.621;34.18;34.18
1553639321;39.551;32.715;31.738;40.527;31.25
1553639321;36.133;30.273;30.762;33.691;36.621
1553639321;24.902;30.273;37.109;41.504;36.133
1553639321;24.414;32.227;41.504;51.758;34.18
1553639321;36.621;32.227;41.504;40.527;34.668
1553639321;38.086;34.18;38.574;36.621;37.109
1553639321;29.785;36.133;37.109;38.086;40.039
1553639321;31.25;39.062;39.062;44.434;38.086
1553639321;33.203;35.156;36.621;47.852;33.691
1553639321;26.367;33.691;34.18;41.504;34.18
1553639321;24.414;37.598;35.156;39.062;39.551
1553639321;31.738;37.109;34.668;40.039;40.039
1553639321;34.18;36.133;30.762;41.504;34.18
1553639321;40.039;36.133;30.273;37.598;32.715
1553639321;39.551;39.551;34.668;43.457;37.109
1553639321;35.156;40.039;36.621;44.434;30.762
1553639321;38.574;39.551;34.668;37.598;25.391
1553639321;37.598;40.039;32.227;36.621;29.297
1553639321;30.273;36.621;29.297;32.227;28.32
1553639321;24.902;33.203;25.879;23.438;25.391
1553639321;21.973;33.203;25.879;26.855;21.973
1553639321;27.344;34.668;26.367;28.32;19.043
1553639321;31.738;38.086;27.344;22.949;21.484
1553639321;25.879;36.621;24.902;23.438;21.484
1553639321;32.227;31.738;22.461;32.715;21.484
1553639321;47.363;29.297;23.438;52.246;24.902
1553639321;31.738;30.762;23.926;52.246;22.461
1553639321;21.484;34.668;24.414;27.344;21.973
1553639321;31.738;37.598;28.809;15.625;21.973
1553639321;24.414;34.18;30.273;25.391;20.508
1553639321;20.508;27.344;27.832;22.461;18.555
1553639321;28.809;29.297;27.344;25.879;26.367
1553639321;33.203;38.574;26.367;31.738;31.738
1553639321;26.367;40.527;29.785;21.973;18.066
1553639321;22.949;36.621;34.18;20.996;8.301
1553639321;21.973;35.156;32.715;30.273;15.137
1553639321;30.762;33.203;31.738;23.438;18.555
1553639321;39.062;32.227;30.762;16.602;14.648
1553639321;30.273;32.227;33.203;22.461;16.602
1553639321;32.715;31.738;34.18;16.602;20.996
1553639321;42.48;33.691;34.668;10.254;25.879
1553639321;36.133;32.715;34.18;20.508;25.391
1553639321;30.273;31.738;34.18;23.926;25.391
1553639321;37.109;32.227;35.645;31.25;34.18
1553639321;44.922;35.156;35.156;42.48;44.922
1553639321;40.039;38.086;34.668;36.621;44.922
1553639321;33.691;38.086;36.133;36.133;39.062
1553639321;27.832;36.133;38.086;33.691;21.973
1553639321;28.32;30.762;37.598;32.227;23.438
1553639321;47.363;27.832;38.086;42.969;44.434
1553639321;60.059;26.855;41.016;64.941;49.316
1553639321;60.547;25.391;44.434;75.684;52.734
1553639321;53.223;22.461;43.945;67.383;52.246
1553639321;57.129;20.996;41.504;62.5;52.734
1553639321;66.406;23.438;40.039;57.129;53.223
1553639321;73.242;23.438;39.062;62.012;56.152
1553639321;79.102;21.973;40.527;83.008;60.059
1553639321;73.73;26.367;44.434;75.684;61.523
1553639321;66.895;28.32;43.457;58.105;57.617
1553639321;65.43;27.832;42.48;60.547;53.223
1553639321;67.383;31.738;42.48;61.035;57.129
1553639321;61.035;31.25;43.945;53.223;58.594
1553639321;55.176;27.344;44.434;51.27;53.711
1553639321;55.664;27.344;41.504;63.477;54.199
1553639321;53.711;26.855;43.457;68.848;52.246
1553639321;50.781;27.832;44.434;62.5;43.457
1553639321;45.898;28.32;40.527;58.105;38.574
1553639321;49.805;26.855;38.086;46.387;38.574
1553639321;52.246;31.738;38.574;41.504;41.504
1553639321;55.176;33.691;36.133;62.012;39.551
1553639321;58.105;33.203;34.668;65.43;39.062
1553639321;49.316;36.133;38.574;45.41;41.992
1553639321;43.457;38.574;40.039;35.645;45.41
1553639321;50.781;41.504;40.527;39.062;50.781
1553639321;60.059;39.062;43.457;49.316;61.523
1553639321;59.082;37.598;43.457;52.734;63.477
1553639321;60.059;36.621;41.016;37.598;55.664
1553639321;56.641;36.133;43.457;36.133;54.199
1553639321;58.105;37.109;43.945;43.457;62.5
1553639321;54.688;39.062;41.992;42.48;61.035
1553639321;46.875;35.645;42.48;48.34;50.781
1553639321;44.434;33.203;41.016;46.875;50.293
1553639321;45.898;33.691;31.738;36.133;54.199
1553639321;52.246;32.227;33.691;38.086;54.688
1553639321;44.922;31.738;41.016;41.992;47.363
1553639321;41.016;32.227;42.48;49.805;45.41
1553639321;41.504;29.785;40.039;44.922;50.293
1553639321;41.016;27.832;38.574;41.016;49.316
1553639321;51.27;27.344;39.551;52.246;41.992
1553639321;58.594;26.367;37.109;68.359;43.945
1553639321;51.758;27.832;33.691;68.359;49.805
1553639321;42.969;30.762;35.156;43.457;50.781
1553639321;41.016;31.25;34.668;32.715;47.852
1553639321;42.969;29.785;33.691;43.945;39.551
1553639321;47.852;30.762;34.668;47.852;35.156
1553639321;49.805;32.715;34.668;37.598;32.227
1553639321;48.828;29.785;36.133;34.668;30.762
1553639321;47.852;29.785;38.086;45.898;33.691
1553639321;44.922;26.855;37.109;51.27;35.156
1553639321;44.922;25.391;35.645;52.246;38.086
1553639321;44.922;27.344;33.203;59.57;36.133
1553639321;37.598;27.344;33.691;54.688;32.227
1553639321;39.062;29.297;34.18;43.945;34.18
1553639321;39.551;30.273;32.227;37.598;32.227
1553639321;40.527;28.809;36.621;36.133;27.344
1553639321;38.574;24.414;37.109;45.41;26.855
1553639321;27.832;24.414;34.668;42.48;28.32
1553639321;28.32;24.902;32.227;31.738;23.926
1553639321;33.691;24.902;31.738;50.781;24.902
1553639321;39.551;28.32;35.156;63.965;28.32
1553639321;41.992;27.832;31.738;53.223;23.438
1553639321;37.598;27.832;30.762;44.434;25.391
1553639321;31.738;28.32;37.109;37.598;26.855
1553639321;24.902;24.902;37.109;31.25;18.066
1553639321;25.391;23.926;36.133;29.297;12.695
1553639321;28.809;23.926;36.133;27.832;13.184
1553639321;32.715;25.391;36.621;29.297;18.555
1553639321;32.715;27.344;40.527;38.086;21.973
1553639321;33.691;28.32;36.133;41.504;25.879
1553639321;47.363;31.25;25.879;41.992;45.41
1553639321;47.363;32.227;32.715;41.016;48.828
1553639321;30.762;27.344;41.992;24.414;31.25
1553639321;15.625;25.879;40.039;19.531;12.207
1553639321;2.93;23.926;36.621;26.855;-1.953
1553639321;9.766;22.949;36.133;17.578;3.418
1553639321;8.301;20.02;37.109;0;0.977
1553639321;-1.465;14.648;37.109;-5.371;-6.348
1553639321;-12.695;11.719;36.621;2.441;-14.16
1553639321;-28.32;8.301;36.621;-2.93;-25.879
1553639321;-32.715;8.789;39.062;-22.461;-19.043
1553639321;-37.109;11.719;34.668;-38.086;-23.926
1553639321;-34.668;12.207;32.715;-41.016;-36.621
1553639321;-37.109;10.742;34.668;-42.48;-33.691
1553639321;-43.945;11.719;32.715;-39.062;-25.879
1553639321;-39.062;16.113;31.738;-30.762;-23.926
1553639321;-24.902;19.531;33.691;-22.461;-21.973
1553639321;-12.207;20.02;33.691;-11.23;-15.625
1553639321;-14.648;21.973;27.832;-9.277;-14.16
1553639321;-21.484;22.461;28.32;-13.672;-11.719
1553639321;-6.348;25.391;34.668;-6.836;-2.441
1553639321;-1.953;28.32;38.574;11.23;0
1553639321;1.465;26.855;37.598;14.16;1.953
1553639321;18.066;28.809;35.645;-0.488;7.324
1553639321;10.742;30.273;36.133;-0.488;1.953
1553639321;0.977;32.715;37.598;3.418;1.953
1553639321;0.488;34.18;36.621;1.953;4.883
1553639321;-3.906;32.715;36.621;0.488;6.836
1553639321;-5.859;31.738;34.18;11.719;4.395
1553639321;-2.441;33.691;32.715;19.531;5.859
1553639321;3.418;36.621;35.156;21.484;18.066
1553639321;10.254;34.668;32.715;11.719;29.785
1553639321;14.648;31.738;32.227;3.906;29.297
1553639321;15.137;32.715;33.203;8.789;16.602
1553639321;19.531;32.715;31.25;12.207;15.625
1553639321;24.414;33.691;31.738;18.555;22.461
1553639321;22.461;35.645;29.297;22.461;25.879
1553639321;22.949;33.203;23.438;17.09;18.555
1553639321;23.438;30.762;23.438;18.555;17.578
1553639321;22.949;31.738;32.227;29.785;27.344
1553639321;23.926;31.738;34.668;27.832;27.832
1553639321;21.973;31.25;30.273;16.602;21.484
1553639321;22.949;33.203;30.273;11.23;20.996
1553639321;20.508;30.762;30.762;13.184;23.438
1553639321;20.02;31.25;32.227;17.09;20.996
1553639321;28.32;35.156;31.738;21.484;13.184
1553639321;29.785;35.156;25.879;20.508;12.695
1553639321;20.996;33.691;29.297;18.066;14.648
1553639321;16.602;34.18;32.227;20.508;13.184
1553639321;12.695;36.621;32.715;25.391;11.719
1553639321;13.184;34.668;39.062;30.273;5.371
1553639321;21.484;32.227;40.039;22.949;8.301
1553639321;20.996;32.715;38.086;13.184;15.137
1553639321;29.785;33.203;40.527;7.812;23.438
1553639321;35.156;36.133;37.598;8.789;28.32
1553639321;27.832;36.621;35.156;11.719;24.414
1553639321;24.414;36.133;25.879;23.438;26.367
1553639321;25.391;37.109;8.301;39.062;27.344
1553639321;23.926;34.18;14.648;39.551;23.926
1553639321;25.879;33.203;35.156;30.762;22.461
1553639321;33.203;32.227;42.48;9.766;13.184
1553639321;32.715;29.297;34.668;15.625;22.949
1553639321;56.152;33.691;24.414;52.734;49.316
1553639321;48.34;32.715;33.691;57.129;39.062
1553639321;1.953;21.973;42.48;14.16;5.859
1553639321;-15.625;13.184;34.668;0.488;-6.348
1553639321;-14.648;6.836;24.902;-21.484;2.441
1553639321;-7.812;6.836;-0.977;-65.43;-4.883
1553639321;-17.578;8.301;-4.883;-70.801;-24.414
1553639321;-38.086;-15.137;24.902;-62.012;-22.949
1553639321;-50.293;-36.133;46.875;-61.035;-29.297
1553639321;-71.777;-24.414;45.898;-66.406;-57.617
1553639321;-86.426;-17.578;20.996;-71.289;-68.359
1553639321;-97.656;-21.484;35.156;-79.59;-72.754
1553639321;-105.469;-28.809;35.156;-73.242;-78.613
1553639321;-104.98;-20.508;24.902;-70.801;-80.566
1553639321;-107.91;-8.789;48.34;-79.102;-79.102
1553639321;-115.723;-7.812;48.34;-88.379;-85.938
1553639321;-123.535;-18.066;34.668;-93.75;-89.355
1553639321;-109.863;-26.855;25.879;-77.148;-74.219
1553639321;-97.656;-19.531;24.414;-63.477;-72.754
1553639321;-96.191;-12.207;12.207;-56.152;-69.336
1553639321;-89.844;-0.977;12.695;-46.387;-51.758
1553639321;-73.242;15.137;30.273;-33.691;-35.156
1553639321;-59.57;11.23;30.273;-22.949;-28.809
1553639321;-48.828;4.395;33.691;-13.184;-22.949
1553639321;-41.016;10.254;40.527;-1.465;-16.113
1553639321;-31.738;11.719;37.598;6.836;-6.348
1553639321;-19.531;14.16;35.156;11.719;6.348
1553639321;-14.648;18.066;28.32;22.949;15.625
1553639321;2.441;20.996;27.344;28.32;18.555
1553639321;10.254;24.414;33.203;24.902;24.902
1553639321;-5.371;27.344;35.645;26.367;30.273
1553639321;-2.93;27.344;33.691;35.156;23.438
1553639321;4.883;29.297;31.738;34.18;20.996
1553639321;4.883;33.691;26.855;28.32;31.738
1553639321;7.812;32.715;25.391;32.227;40.527
1553639321;10.254;34.18;37.598;37.109;42.969
1553639321;17.09;31.738;40.039;40.039;47.852
1553639321;17.09;30.762;34.668;37.598;40.527
1553639321;10.742;36.133;35.156;34.668;32.715
1553639321;13.184;34.668;33.203;41.504;32.227
1553639321;17.578;36.621;33.691;44.922;37.598
1553639321;22.461;42.969;29.297;41.504;36.133
1553639321;26.855;40.527;28.809;43.457;35.645
1553639321;28.32;36.133;42.48;44.434;35.156
1553639322;32.715;38.574;43.457;47.852;29.297
1553639322;31.738;46.387;38.574;54.199;34.668
1553639322;25.391;48.828;35.156;42.48;39.062
1553639322;24.414;45.898;28.809;31.25;34.668
1553639322;24.414;44.434;28.809;26.855;29.297
1553639322;22.949;46.875;32.715;14.648;32.715
1553639322;36.621;47.852;33.203;16.602;36.621
1553639322;38.086;48.34;35.645;24.414;37.598
1553639322;21.973;44.434;38.086;25.391;31.25
1553639322;27.832;41.992;35.156;38.086;32.227
1553639322;34.668;43.945;30.762;39.062;35.645
1553639322;31.738;39.551;28.32;31.25;34.18
1553639322;32.227;38.086;24.902;30.762;33.203
1553639322;38.086;41.992;26.367;39.062;32.715
1553639322;37.109;39.551;28.32;40.527;33.691
1553639322;36.621;34.668;23.438;40.527;37.598
1553639322;40.039;34.18;25.879;49.316;40.039
1553639322;34.18;38.086;22.461;41.504;37.109
1553639322;37.598;37.109;13.672;31.25;36.133
1553639322;37.109;37.109;19.043;35.156;39.551
1553639322;30.273;38.574;27.832;36.621;43.457
1553639322;36.621;40.527;33.691;30.273;39.551
1553639322;43.945;40.039;36.133;32.227;38.574
1553639322;41.992;35.645;36.133;37.109;41.504
1553639322;40.527;33.691;29.297;32.715;41.504
1553639322;40.527;30.273;31.738;28.809;40.039
1553639322;39.062;31.25;35.156;37.109;38.574
1553639322;39.062;36.133;32.715;43.457;43.945
1553639322;47.852;35.156;31.25;36.133;42.48
1553639322;43.457;40.527;26.855;38.086;36.621
1553639322;37.598;42.969;23.926;40.527;31.25
1553639322;45.898;41.016;31.25;36.133;29.785
1553639322;47.852;41.016;33.203;38.574;35.645
1553639322;49.805;43.945;32.715;36.133;34.18
1553639322;49.805;41.992;34.18;35.156;37.109
1553639322;44.922;38.086;34.18;38.086;43.945
1553639322;45.41;35.645;33.203;35.645;44.434
1553639322;46.875;34.18;28.32;41.992;47.852
1553639322;46.387;32.715;28.809;42.969;45.898
1553639322;43.945;30.273;37.598;39.062;41.016
1553639322;47.363;23.926;34.668;45.898;46.875
1553639322;45.41;18.555;23.438;48.34;47.852
1553639322;40.039;24.902;28.32;40.039;39.062
1553639322;44.434;34.18;36.133;35.645;38.086
1553639322;48.828;36.133;34.668;36.133;44.922
1553639322;44.434;32.227;35.156;34.668;48.34
1553639322;38.574;31.738;37.109;36.621;45.898
1553639322;42.969;30.762;33.691;43.457;42.969
1553639322;43.457;27.832;28.809;38.574;42.969
1553639322;41.992;26.855;28.32;36.133;41.016
1553639322;44.434;30.273;35.645;36.133;41.016
1553639322;40.527;25.391;33.691;33.691;37.109
1553639322;41.016;21.484;35.156;34.18;35.645
1553639322;46.875;22.949;33.691;41.016;45.41
1553639322;45.41;21.973;31.738;42.969;57.617
1553639322;44.434;19.043;40.039;42.48;52.734
1553639322;44.922;14.648;37.598;41.016;42.969
1553639322;42.969;18.555;33.203;40.527;38.574
1553639322;42.48;27.832;40.039;43.945;28.809
1553639322;37.109;28.32;49.805;41.992;28.809
1553639322;31.25;21.484;49.805;39.062;34.18
1553639322;28.809;19.531;46.387;38.574;36.621
1553639322;26.855;26.855;42.969;40.039;38.086
1553639322;29.785;31.25;40.039;44.434;28.809
1553639322;33.203;27.832;32.227;40.527;31.25
1553639322;36.621;31.738;26.367;41.504;41.504
1553639322;38.086;35.156;33.203;50.293;48.34
1553639322;40.039;35.156;37.109;48.34;49.805
1553639322;43.457;34.18;40.527;33.691;40.527
1553639322;41.504;32.715;43.457;24.414;32.227
1553639322;43.945;32.715;43.945;27.832;35.645
1553639322;45.41;31.25;36.621;28.809;32.227
1553639322;35.156;31.738;32.715;27.344;29.785
1553639322;30.273;31.738;34.18;32.715;34.18
1553639322;27.832;30.273;28.32;35.156;28.32
1553639322;24.414;24.902;28.809;36.621;28.809
1553639322;26.855;26.855;32.715;36.621;29.297
1553639322;33.691;31.25;34.668;36.621;32.227
1553639322;41.016;28.809;34.18;39.062;38.086
1553639322;40.039;33.203;32.715;44.922;39.062
1553639322;36.621;33.203;31.738;44.434;41.016
1553639322;34.18;28.32;43.945;38.574;43.945
1553639322;35.645;31.738;43.945;39.062;41.016
1553639322;38.086;37.109;34.18;42.48;40.527
1553639322;41.016;39.551;37.598;38.574;42.48
1553639322;45.898;37.109;39.551;33.203;47.852
1553639322;39.551;36.133;40.039;33.203;46.387
1553639322;26.367;36.133;42.48;29.785;29.297
1553639322;33.203;31.25;41.016;28.809;33.691
1553639322;41.504;29.785;35.645;27.344;40.527
1553639322;36.133;27.832;28.32;25.391;31.738
1553639322;31.25;26.367;30.273;23.926;28.809
1553639322;30.762;27.832;33.691;24.414;32.227
1553639322;30.762;23.438;30.762;24.902;33.203
1553639322;29.785;24.902;31.25;30.762;33.691
1553639322;32.715;25.879;31.738;38.574;32.715
1553639322;38.086;19.043;32.227;35.645;35.645
1553639322;38.086;22.461;35.156;32.227;39.062
1553639322;35.156;28.809;28.809;38.574;31.25
1553639322;36.133;26.855;29.297;40.527;30.273
1553639322;41.504;25.879;36.133;41.016;40.039
1553639322;40.527;31.25;31.738;48.34;42.48
1553639322;40.039;32.227;21.484;47.852;37.109
1553639322;38.086;33.691;26.367;41.992;41.504
1553639322;40.527;33.691;31.25;43.945;41.504
1553639322;39.551;25.879;23.926;45.898;32.227
1553639322;34.668;23.438;35.645;51.758;30.273
1553639322;38.086;28.32;45.41;49.805;35.645
1553639322;32.715;31.25;41.016;33.691;38.086
1553639322;33.203;27.832;36.621;25.879;36.621
1553639322;37.109;26.855;35.156;26.367;39.551
1553639322;33.203;32.715;19.043;27.344;41.504
1553639322;38.086;32.227;20.508;30.273;46.387
1553639322;41.992;30.273;35.156;36.133;50.293
1553639322;38.574;33.691;35.645;44.922;43.457
1553639322;34.668;30.273;36.621;46.387;29.785
1553639322;34.668;29.297;34.668;38.574;23.438
1553639322;35.156;27.832;32.715;27.344;29.297
1553639322;35.156;29.297;30.762;23.926;36.621
1553639322;33.691;32.227;30.273;27.832;37.598
1553639322;35.156;31.25;34.18;28.32;40.039
1553639322;39.062;35.645;29.297;31.25;42.969
1553639322;46.387;36.621;24.414;39.551;45.898
1553639322;40.039;33.691;30.273;32.715;40.527
1553639322;30.762;24.414;34.18;25.391;32.227
1553639322;33.203;28.32;41.016;33.691;34.18
1553639322;32.715;35.645;43.945;33.691;36.133
1553639322;29.785;34.18;42.969;30.273;34.668
1553639322;28.32;37.598;41.992;33.691;30.273
1553639322;33.203;37.109;35.645;31.25;28.809
1553639322;30.273;31.738;32.715;28.809;30.273
1553639322;29.785;32.227;36.133;30.273;30.273
1553639322;31.738;32.227;34.18;28.32;26.367
1553639322;31.25;29.297;30.273;31.25;24.902
1553639322;30.273;29.297;30.762;29.297;26.367
1553639322;25.391;30.762;29.785;26.367;26.855
1553639322;29.785;30.762;32.227;24.414;25.879
1553639322;30.762;31.738;37.598;28.32;25.391
1553639322;29.297;32.715;39.551;35.156;28.809
1553639322;36.133;30.273;39.062;31.738;31.738
1553639322;34.18;27.344;39.062;29.297;32.227
1553639322;30.273;30.762;38.086;26.855;30.273
1553639322;34.18;39.062;33.203;25.879;30.273
1553639322;38.574;39.062;22.461;26.367;34.668
1553639322;35.156;33.203;27.344;25.879;31.25
1553639322;26.855;31.738;37.598;24.902;22.949
1553639322;28.32;30.273;33.691;21.484;23.438
1553639322;28.809;30.762;38.574;27.344;25.879
1553639322;31.25;34.668;45.41;41.016;31.25
1553639322;37.109;34.18;40.527;30.762;25.879
1553639322;33.203;32.227;32.227;27.832;20.508
1553639322;31.738;33.691;33.203;32.715;25.879
1553639322;30.762;38.574;30.273;27.344;28.32
1553639322;29.785;43.457;24.414;27.344;26.367
1553639322;31.738;40.039;31.25;26.855;22.949
1553639322;31.25;38.086;38.086;22.461;22.949
1553639322;39.062;40.039;37.598;23.926;28.32
1553639322;42.969;37.598;36.133;25.391;26.855
1553639322;38.574;34.668;36.621;26.367;23.926
1553639322;31.25;34.668;34.668;29.297;26.367
1553639322;24.902;33.691;31.738;28.809;24.414
1553639322;22.949;34.668;36.133;26.855;24.414
1553639322;29.297;37.109;38.574;27.344;27.832
1553639322;38.574;41.016;39.062;34.668;32.227
1553639322;41.504;44.434;37.598;37.598;38.086
1553639322;40.527;41.992;36.621;37.109;38.086
1553639322;42.48;40.039;35.156;43.945;38.574
1553639322;47.852;41.504;37.598;43.457;39.551
1553639322;36.133;44.922;44.434;36.133;32.715
1553639322;25.391;46.875;41.016;29.785;29.297
1553639322;32.715;49.316;38.086;23.926;26.855
1553639322;37.109;49.805;39.551;26.367;27.344
1553639322;39.551;45.41;40.039;30.273;36.133
1553639322;39.062;40.039;35.645;33.691;43.457
1553639322;41.504;39.062;36.621;33.691;44.922
1553639322;44.922;40.039;34.668;33.203;44.922
1553639322;45.41;42.48;28.809;37.109;48.828
1553639322;44.922;42.969;32.227;39.062;51.27
1553639322;33.691;40.527;35.156;35.645;41.992
1553639322;25.391;38.574;40.039;36.133;30.762
1553639322;29.297;36.621;39.551;32.715;26.367
1553639322;31.25;38.574;25.879;25.391;25.879
1553639322;28.809;41.504;26.855;25.879;26.855
1553639322;27.344;38.086;39.062;26.855;20.508
1553639322;31.738;38.574;40.527;31.738;19.043
1553639322;29.785;42.48;41.992;34.18;24.902
1553639322;21.484;40.039;38.086;29.785;27.344
1553639322;27.344;37.598;33.203;25.879;26.855
1553639322;28.32;38.574;34.18;25.391;24.414
1553639322;22.949;38.574;38.086;32.715;27.344
1553639322;27.344;36.133;35.645;32.715;34.18
1553639322;30.273;34.18;25.391;24.902;33.203
1553639322;23.926;34.668;25.391;20.508;21.484
1553639322;26.367;36.133;35.645;20.996;23.926
1553639322;32.227;35.156;39.551;24.414;31.25
1553639322;29.297;33.691;39.062;24.414;26.367
1553639322;25.391;31.25;36.133;24.414;20.996
1553639322;24.902;30.762;32.715;24.414;20.02
1553639322;24.902;33.203;36.621;25.391;24.902
1553639322;22.461;35.645;32.715;24.414;29.785
1553639322;29.785;38.574;28.32;24.414;28.809
1553639322;31.738;37.598;31.25;27.832;25.879
1553639322;30.762;38.574;36.621;32.227;28.809
1553639322;32.227;40.527;41.992;30.762;35.156
1553639322;34.668;42.48;41.016;26.855;34.18
1553639322;39.551;45.41;41.016;27.832;30.273
1553639322;36.133;43.457;39.062;29.297;27.832
1553639322;31.738;41.992;40.527;29.785;35.156
1553639322;35.156;41.992;38.574;28.32;44.434
1553639322;38.574;42.969;25.879;34.18;39.062
1553639322;32.227;39.551;31.738;38.574;32.715
1553639322;27.832;39.062;44.922;32.227;32.715
1553639322;29.785;40.527;41.992;33.203;35.156
1553639322;31.25;36.133;36.133;34.18;29.297
1553639322;28.809;32.715;37.109;32.715;26.367
1553639322;30.762;32.227;33.203;36.621;34.668
1553639322;36.133;35.645;24.414;39.062;44.922
1553639322;38.574;36.621;30.762;35.156;42.48
1553639322;34.18;37.109;33.691;22.461;28.32
1553639322;30.273;41.016;34.18;14.648;20.508
1553639322;26.367;39.062;37.109;16.113;20.02
1553639322;23.926;29.297;36.621;20.996;20.508
1553639322;31.738;28.32;32.227;27.832;22.461
1553639322;34.668;33.203;26.367;32.227;28.809
1553639322;38.574;32.227;26.855;36.133;40.527
1553639322;46.875;35.156;34.668;39.062;48.34
1553639322;42.969;34.668;37.598;40.527;47.852
1553639322;43.945;27.832;31.25;42.969;41.016
1553639322;46.875;29.297;25.879;41.504;36.621
1553639322;41.016;31.738;34.18;38.086;34.668
1553639322;37.598;34.18;42.48;31.738;26.367
1553639322;40.039;32.227;44.922;26.855;22.949
1553639322;41.992;31.25;37.598;32.227;26.855
1553639322;40.039;34.668;30.273;36.621;37.109
1553639322;37.109;34.668;32.715;38.086;37.109
1553639322;41.016;37.598;35.156;39.551;33.691
1553639322;36.621;38.086;33.691;40.527;31.738
1553639322;30.762;28.809;33.691;35.156;31.25
1553639322;28.809;26.855;38.086;28.809;31.738
1553639322;29.297;36.621;41.504;30.762;38.574
1553639322;33.203;38.086;39.551;30.762;45.898
1553639322;31.25;39.551;38.086;33.203;37.109
1553639322;32.227;40.039;36.133;31.25;27.832
1553639322;37.598;37.598;32.715;32.715;30.762
1553639322;38.574;40.039;34.18;35.645;30.762
1553639322;41.504;43.945;36.133;36.133;33.203
1553639322;38.574;40.039;37.109;35.156;33.203
1553639322;29.297;36.621;41.504;29.785;21.484
1553639322;31.738;36.133;42.48;32.227;22.949
1553639322;34.668;38.574;41.504;35.156;35.156
1553639322;35.645;40.527;32.227;33.203;44.434
1553639322;31.738;36.621;33.203;32.715;42.969
1553639322;32.715;31.25;43.457;37.598;41.992
1553639322;37.109;25.391;36.133;40.527;40.039
1553639322;36.621;26.367;32.715;35.645;32.715
1553639322;39.062;31.738;39.551;34.668;22.949
1553639323;33.203;36.621;42.969;33.203;15.137
1553639323;30.273;38.086;36.621;32.227;22.949
1553639323;33.691;35.645;31.25;35.156;33.203
1553639323;31.738;30.762;37.109;35.156;35.156
1553639323;30.762;28.809;33.691;34.18;23.926
1553639323;27.344;30.762;26.367;34.18;19.531
1553639323;25.391;33.203;27.344;31.738;22.461
1553639323;26.367;33.203;33.203;28.32;21.484
1553639323;28.32;31.738;33.203;28.32;28.32
1553639323;33.203;28.32;34.668;25.391;35.645
1553639323;41.016;30.762;38.574;28.809;34.668
1553639323;36.621;34.668;26.855;35.156;36.133
1553639323;28.809;31.25;27.344;32.715;34.18
1553639323;33.691;30.762;40.039;30.762;27.832
1553639323;41.016;32.715;41.016;30.273;27.344
1553639323;41.016;30.762;41.504;32.715;25.879
1553639323;32.227;39.551;35.645;31.738;27.344
1553639323;31.738;45.41;32.715;26.367;30.273
1553639323;35.645;41.992;39.551;31.25;31.25
1553639323;36.621;38.574;41.504;33.691;41.504
1553639323;37.598;37.109;43.945;29.785;45.898
1553639323;38.086;33.691;39.551;29.785;44.434
1553639323;39.551;34.668;34.18;33.203;39.551
1553639323;39.062;36.621;37.109;35.156;33.203
1553639323;37.598;36.133;34.18;27.832;39.062
1553639323;34.18;35.156;31.25;26.367;44.922
1553639323;32.715;33.691;23.438;35.645;42.969
1553639323;38.086;36.133;21.484;41.992;34.18
1553639323;41.504;41.504;32.715;39.062;44.434
1553639323;40.527;41.992;42.969;27.832;44.922
1553639323;38.086;31.738;48.34;27.832;35.156
1553639323;35.645;31.738;39.551;24.902;39.062
1553639323;31.738;41.016;33.691;20.996;39.551
1553639323;33.203;40.039;29.785;22.949;38.574
1553639323;36.133;36.133;20.996;29.785;31.25
1553639323;39.062;37.109;24.902;36.133;27.344
1553639323;38.086;35.645;30.273;35.645;31.25
1553639323;39.551;35.156;28.32;33.691;38.086
1553639323;40.527;36.133;28.809;42.969;46.387
1553639323;41.016;35.645;33.203;42.969;43.945
1553639323;49.316;39.062;34.668;34.18;41.992
1553639323;46.875;36.621;31.25;38.086;41.016
1553639323;38.574;30.273;31.25;37.598;33.203
1553639323;33.691;31.25;35.156;36.621;31.25
1553639323;34.668;32.715;37.598;40.527;37.109
1553639323;38.574;30.762;39.551;47.852;40.527
1553639323;39.062;33.691;41.504;48.828;41.992
1553639323;43.457;35.645;39.551;39.551;44.922
1553639323;44.434;35.645;30.273;38.086;43.457
1553639323;39.062;37.109;31.25;43.457;38.086
1553639323;41.016;34.668;38.086;45.41;43.457
1553639323;41.016;30.273;20.508;41.016;39.062
1553639323;40.039;31.25;22.949;37.598;24.902
1553639323;36.621;35.156;46.387;40.039;26.855
1553639323;34.18;36.621;47.852;34.18;36.621
1553639323;35.156;35.156;42.969;24.902;33.691
1553639323;29.297;28.32;37.109;22.461;29.785
1553639323;27.832;23.926;31.25;24.902;31.25
1553639323;31.25;25.879;22.461;29.785;36.621
1553639323;35.156;31.25;22.949;26.367;36.133
1553639323;41.504;30.273;34.668;27.344;32.227
1553639323;40.039;27.344;37.598;33.691;36.133
1553639323;38.574;33.691;37.598;37.109;44.434
1553639323;42.48;37.598;37.598;40.039;47.363
1553639323;40.039;38.574;36.133;39.551;44.922
1553639323;42.48;39.062;37.598;47.852;53.711
1553639323;43.457;35.645;37.109;50.293;56.641
1553639323;37.598;35.645;33.691;44.434;50.293
1553639323;41.504;34.18;36.621;47.363;43.945
1553639323;44.922;32.227;36.133;47.852;44.922
1553639323;37.598;32.227;33.691;44.434;45.41
1553639323;38.086;31.25;43.945;41.016;42.48
1553639323;48.34;32.715;46.875;42.969;41.016
1553639323;43.945;29.785;42.48;43.945;42.969
1553639323;37.598;28.809;38.086;44.434;43.945
1553639323;40.527;31.25;35.156;48.828;49.805
1553639323;42.48;27.832;35.645;45.41;47.363
1553639323;42.48;25.391;39.062;42.48;42.969
1553639323;41.992;24.414;41.016;41.992;41.992
1553639323;41.016;25.391;37.598;42.48;41.992
1553639323;40.039;29.785;35.645;43.945;46.875
1553639323;40.039;33.691;37.598;43.457;45.41
1553639323;39.062;33.691;34.18;37.598;43.457
1553639323;34.18;33.691;29.785;31.738;45.898
1553639323;31.738;34.18;32.227;35.645;48.828
1553639323;38.086;34.18;31.25;37.598;46.387
1553639323;36.133;33.691;31.738;37.109;40.039
1553639323;32.715;32.715;34.18;38.086;42.48
1553639323;33.203;29.785;34.668;38.086;47.363
1553639323;28.809;28.809;36.133;35.645;44.434
1553639323;30.762;28.809;38.086;35.645;41.992
1553639323;30.762;31.25;36.133;36.621;42.48
1553639323;26.855;30.762;34.18;39.062;44.922
1553639323;26.855;28.32;35.156;38.574;42.969
1553639323;29.297;27.832;34.668;36.133;40.527
1553639323;31.25;28.809;30.762;35.156;40.039
1553639323;30.273;32.715;25.391;33.203;40.527
1553639323;31.738;28.809;25.879;32.715;42.48
1553639323;33.203;22.949;31.738;31.25;39.551
1553639323;34.18;27.832;33.203;32.715;35.156
1553639323;35.156;27.832;32.227;32.715;33.691
1553639323;28.32;25.879;32.227;30.762;34.18
1553639323;28.32;28.809;33.203;34.668;31.738
1553639323;30.273;28.809;36.621;33.691;29.785
1553639323;29.785;27.832;32.715;29.297;25.879
1553639323;27.832;25.879;30.762;23.926;23.926
1553639323;24.414;24.902;34.668;19.531;25.879
1553639323;24.414;24.902;33.203;24.414;26.855
1553639323;25.391;25.391;31.738;23.926;31.25
1553639323;24.414;27.344;27.832;20.996;38.086
1553639323;27.344;24.902;28.809;21.973;40.039
1553639323;32.715;24.902;33.691;22.461;35.645
1553639323;27.344;27.344;31.25;22.949;34.18
1553639323;21.484;27.832;30.762;25.391;31.25
1553639323;20.996;24.902;30.273;25.879;29.297
1553639323;15.137;22.461;26.367;22.461;23.438
1553639323;9.277;20.02;26.855;22.949;18.555
1553639323;17.09;18.555;29.297;20.996;16.113
1553639323;18.066;17.09;30.273;17.09;13.672
1553639323;6.836;18.066;28.32;16.602;13.672
1553639323;3.418;17.578;26.855;17.09;10.254
1553639323;3.418;21.973;28.809;13.184;6.836
1553639323;12.695;25.391;27.344;11.719;11.719
1553639323;20.996;24.902;28.809;12.207;14.16
1553639323;19.531;27.344;32.227;8.789;11.719
1553639323;15.625;22.949;32.715;3.418;10.742
1553639323;8.789;24.414;33.203;0.488;10.742
1553639323;5.371;28.32;34.668;4.883;9.766
1553639323;5.371;28.32;35.156;6.836;6.348
1553639323;3.418;31.738;36.621;6.348;4.395
1553639323;-1.953;32.715;38.086;0.488;0.977
1553639323;-3.418;30.273;37.598;-2.441;3.418
1553639323;-1.465;28.32;41.504;8.301;10.254
1553639323;0.977;35.645;40.527;-0.488;5.859
1553639323;-1.953;50.293;29.785;-25.391;-13.184
1553639323;2.93;54.199;30.762;-19.531;-13.184
1553639323;0.488;54.688;39.062;-10.254;-6.836
1553639323;-12.695;60.059;35.645;-23.438;-19.531
1553639323;-20.508;62.5;31.738;-27.832;-26.855
1553639323;-22.461;63.477;39.551;-18.066;-19.043
1553639323;-27.832;67.871;41.016;-29.297;-24.902
1553639323;-33.203;73.73;33.203;-40.527;-39.551
1553639323;-32.715;71.777;30.762;-35.156;-43.457
1553639323;-33.691;72.754;29.785;-47.852;-48.828
1553639323;-36.621;80.566;26.367;-62.5;-59.082
1553639323;-35.645;83.008;24.414;-55.176;-53.711
1553639323;-31.738;86.914;32.715;-47.852;-38.086
1553639323;-44.434;91.797;36.621;-60.547;-46.875
1553639323;-48.34;93.75;29.785;-73.242;-63.965
1553639323;-32.715;96.191;29.297;-62.012;-58.594
1553639323;-35.156;98.633;30.273;-55.176;-52.246
1553639323;-31.738;106.445;31.25;-56.152;-42.969
1553639323;-38.574;111.816;35.156;-60.059;-43.945
1553639323;-49.805;107.91;32.227;-67.871;-55.176
1553639323;-36.133;110.84;28.32;-57.617;-47.363
1553639323;-35.645;118.652;30.273;-57.129;-50.293
1553639323;-50.781;123.047;34.18;-73.242;-69.336
1553639323;-48.34;123.047;34.18;-75.195;-71.777
1553639323;-33.203;123.535;34.18;-62.012;-58.594
1553639323;-39.062;123.047;40.527;-68.848;-59.57
1553639323;-54.199;120.117;44.922;-87.402;-75.684
1553639323;-52.734;118.652;41.992;-89.355;-81.055
1553639323;-44.922;116.211;35.156;-82.031;-69.336
1553639323;-41.992;111.816;35.156;-73.73;-55.176
1553639323;-40.527;110.352;39.062;-70.312;-55.176
1553639323;-41.992;109.863;41.504;-70.312;-62.988
1553639323;-49.316;107.91;41.016;-71.777;-67.383
1553639323;-38.574;104.004;37.109;-59.082;-57.129
1553639323;-22.949;100.586;35.645;-44.922;-43.457
1553639323;-11.719;97.656;34.668;-35.645;-26.855
1553639323;0;93.262;31.25;-22.461;-13.672
1553639323;16.113;86.426;29.297;-3.906;0.488
1553639323;36.133;80.078;30.762;21.484;23.926
1553639323;57.129;72.754;22.461;43.457;42.48
1553639323;72.266;62.012;20.508;59.082;59.57
1553639323;87.891;52.734;26.367;77.148;73.73
1553639323;106.445;52.246;23.438;101.074;91.309
1553639323;124.512;43.457;21.484;128.906;110.352
1553639323;137.695;25.879;25.879;144.531;129.883
1553639323;150.879;16.602;33.203;151.367;140.625
1553639323;166.992;8.789;33.203;160.156;136.23
1553639323;178.711;0.488;29.785;173.828;154.297
1553639323;194.336;0;23.438;192.871;181.641
1553639323;207.031;0.488;22.949;207.031;185.059
1553639323;208.008;-5.371;25.391;205.078;171.387
1553639323;214.355;-3.906;24.902;213.867;181.641
1553639323;222.168;0;27.832;230.469;201.172
1553639323;221.68;-3.418;30.273;234.375;201.66
1553639323;222.656;-8.789;30.273;231.445;199.707
1553639323;232.422;-8.789;31.738;233.887;206.543
1553639323;237.305;-9.277;31.25;234.375;217.773
1553639323;223.633;-12.207;31.25;224.121;213.867
1553639323;208.984;-15.137;30.273;215.332;198.73
1553639323;209.473;-16.113;31.738;220.703;193.848
1553639323;220.215;-10.742;33.691;223.633;200.195
1553639323;207.031;-5.859;33.203;212.402;197.266
1553639323;187.012;-6.836;30.762;199.707;175.781
1553639323;196.289;-4.883;29.297;196.777;174.316
1553639323;197.266;0.488;25.879;192.383;167.969
1553639323;180.664;0;20.02;184.082;154.297
1553639323;176.27;0.488;17.578;181.641;148.926
1553639323;168.457;-1.465;19.531;176.758;146.484
1553639323;164.062;-0.977;24.902;171.387;154.297
1553639323;160.645;2.93;24.414;166.016;162.109
1553639323;156.738;3.418;26.367;160.156;157.715
1553639323;157.227;0.977;29.297;155.762;139.648
1553639323;147.461;3.418;30.273;153.809;131.348
1553639323;142.578;12.695;30.762;152.344;139.648
1553639323;146.484;15.137;27.832;145.02;140.137
1553639323;140.137;11.719;25.879;141.602;126.953
1553639323;134.766;8.301;24.414;138.184;121.094
1553639323;126.953;9.277;24.902;128.906;121.094
1553639323;114.258;14.16;27.832;121.582;112.305
1553639323;121.582;18.066;27.832;112.793;104.98
1553639323;121.094;22.461;30.273;107.91;100.586
1553639323;109.375;24.902;34.18;101.562;97.656
1553639323;114.258;29.297;35.645;99.609;107.91
1553639323;125;30.273;35.645;106.445;109.863
1553639323;111.816;30.273;35.156;112.793;102.539
1553639323;97.168;32.715;35.645;110.352;100.586
1553639323;95.215;32.715;32.227;100.586;104.004
1553639323;88.379;32.227;31.25;95.215;95.703
1553639323;88.379;31.25;31.25;91.309;88.379
1553639323;87.891;33.691;34.18;86.914;92.285
1553639323;82.031;37.598;39.551;87.402;92.773
1553639323;85.938;32.715;37.109;83.984;86.914
1553639323;82.52;24.414;35.645;75.195;77.148
1553639323;80.566;30.273;39.551;73.242;79.59
1553639323;84.473;38.574;38.574;76.172;82.52
1553639323;77.148;39.062;33.691;76.66;80.566
1553639323;72.754;35.645;32.715;76.172;77.148
1553639323;73.242;33.691;33.691;76.66;70.801
1553639323;77.637;34.18;32.227;76.66;70.312
1553639323;74.219;33.203;31.25;71.289;71.289
1553639323;70.312;35.156;34.668;72.266;69.824
1553639323;67.383;31.25;35.156;67.871;69.336
1553639323;67.383;29.785;32.227;55.176;56.641
1553639323;63.965;30.762;31.738;55.664;48.34
1553639323;60.059;29.297;34.668;62.012;52.734
1553639323;68.848;32.227;34.18;60.547;55.664
1553639323;70.312;31.25;32.715;56.152;56.641
1553639323;60.059;35.645;33.691;58.105;59.082
1553639323;61.523;34.668;35.156;56.641;60.059
1553639323;61.035;29.297;32.227;59.082;59.082
1553639323;65.918;34.18;31.25;66.895;65.43
1553639323;67.383;35.156;33.203;67.383;68.359
1553639323;61.523;35.156;34.18;62.012;65.918
1553639323;56.641;39.062;30.762;55.664;61.035
1553639323;57.129;41.992;26.855;55.664;61.035
1553639323;62.5;40.039;28.809;60.059;63.965
1553639323;55.176;38.086;34.18;62.5;65.43
1553639323;48.828;38.086;36.133;51.758;59.082
1553639323;55.176;37.598;35.156;52.246;46.387
1553639323;54.688;40.527;32.227;56.641;43.457
1553639323;49.805;41.504;30.762;51.27;47.852
1553639323;50.781;44.434;33.691;50.781;51.27
1553639324;54.688;47.852;35.645;50.781;52.734
1553639324;51.27;44.922;31.738;51.758;55.664
1553639324;52.734;42.48;33.691;51.27;58.594
1553639324;53.711;40.527;37.598;45.898;54.688
1553639324;50.293;41.016;36.133;42.969;54.688
1553639324;72.754;46.875;30.273;56.152;76.66
1553639324;83.008;49.805;35.156;70.312;88.379
1553639324;54.199;42.48;44.434;59.082;64.453
1553639324;35.645;36.621;42.969;36.621;35.645
1553639324;27.344;33.691;38.574;24.414;16.113
1553639324;0.977;31.25;37.109;4.395;-1.953
1553639324;-20.996;22.461;37.109;-25.391;-18.066
1553639324;-42.969;7.324;29.297;-41.992;-36.621
1553639324;-69.336;3.418;22.949;-53.223;-53.223
1553639324;-83.008;1.953;32.227;-73.242;-67.871
1553639324;-94.238;-6.836;40.527;-89.355;-76.172
1553639324;-106.445;-12.695;40.527;-93.262;-85.938
1553639324;-123.047;-20.508;40.527;-101.074;-106.445
1553639324;-140.137;-27.344;39.062;-111.816;-122.07
1553639324;-136.23;-26.855;35.645;-112.793;-120.605
1553639324;-135.254;-24.902;37.598;-112.305;-124.023
1553639324;-142.578;-24.414;40.039;-112.305;-135.742
1553639324;-144.043;-30.273;40.039;-109.375;-128.906
1553639324;-144.531;-31.738;44.434;-100.586;-115.234
1553639324;-135.742;-28.809;45.41;-103.027;-110.352
1553639324;-124.023;-23.438;41.992;-104.98;-102.539
1553639324;-117.188;-21.484;39.551;-91.797;-97.168
1553639324;-129.395;-28.32;36.133;-92.285;-104.98
1553639324;-125;-32.715;29.297;-86.914;-90.82
1553639324;-105.957;-30.273;29.785;-74.707;-74.707
1553639324;-94.727;-22.949;32.715;-69.336;-74.219
1553639324;-80.078;-13.672;34.18;-52.246;-61.523
1553639324;-64.453;-13.184;33.691;-41.504;-50.293
1553639324;-58.594;-10.742;34.18;-40.039;-41.992
1553639324;-53.711;-5.859;33.691;-28.32;-33.203
1553639324;-43.457;-6.836;28.809;-18.555;-23.438
1553639324;-30.762;-3.418;27.832;-14.16;-13.672
1553639324;-21.973;1.465;31.25;-8.301;-2.441
1553639324;-19.043;4.883;30.273;-4.883;1.465
1553639324;-8.301;5.371;22.949;-8.301;4.395
1553639324;-5.859;7.324;26.367;-7.324;18.066
1553639324;-12.695;7.812;27.832;-2.441;24.414
1553639324;-12.695;9.277;22.461;0;26.367
1553639324;-9.277;11.719;20.02;2.93;20.02
1553639324;-9.766;9.766;22.461;12.207;19.043
1553639324;-10.742;8.301;27.832;15.625;23.438
1553639324;-6.836;8.789;31.738;16.113;21.484
1553639324;1.465;10.742;31.25;23.438;22.461
1553639324;7.324;14.648;28.32;27.344;27.344
1553639324;13.672;16.113;32.227;30.273;33.203
1553639324;16.113;15.625;33.691;22.461;34.668
1553639324;20.996;20.996;31.25;23.926;33.203
1553639324;36.133;23.438;33.203;26.855;36.133
1553639324;35.645;26.855;33.691;23.438;37.598
1553639324;22.461;29.297;29.297;25.879;38.086
1553639324;21.973;27.832;31.25;24.414;37.598
1553639324;28.809;30.273;27.344;26.855;37.109
1553639324;23.438;29.297;26.855;24.902;30.273
1553639324;31.25;27.832;32.715;19.531;27.832
1553639324;37.598;22.949;29.297;19.531;30.273
1553639324;18.066;20.02;29.297;29.297;32.715
1553639324;15.625;20.996;34.668;33.203;35.156
1553639324;21.973;21.484;35.645;25.391;37.598
1553639324;24.902;23.438;34.18;26.367;39.551
1553639324;28.32;24.902;33.203;24.902;32.227
1553639324;27.344;26.367;33.691;21.973;31.738
1553639324;28.32;26.855;33.691;26.367;39.551
1553639324;31.738;29.297;33.203;37.109;39.551
1553639324;32.715;32.227;31.738;39.062;39.062
1553639324;34.18;30.273;30.762;27.832;33.691
1553639324;38.086;28.809;29.297;20.996;27.344
1553639324;33.691;29.785;29.785;24.902;32.227
1553639324;24.902;29.297;27.344;24.902;29.297
1553639324;31.25;26.367;25.391;20.02;24.414
1553639324;46.875;24.902;33.691;26.855;27.832
1553639324;39.551;27.832;34.668;26.367;29.785
1553639324;22.949;30.762;30.762;20.508;30.273
1553639324;21.484;28.32;30.762;21.484;26.855
1553639324;24.414;26.855;32.715;20.508;22.949
1553639324;31.25;28.32;34.18;21.973;25.391
1553639324;32.227;31.738;34.18;23.438;31.25
1553639324;28.32;35.156;33.691;23.926;36.621
1553639324;36.133;36.133;33.203;29.297;32.227
1553639324;42.969;34.668;31.738;33.203;20.02
1553639324;29.297;31.25;31.25;29.297;22.949
1553639324;18.555;30.273;32.227;26.367;34.18
1553639324;29.297;29.785;32.715;34.18;27.832
1553639324;32.715;27.344;33.203;35.156;18.555
1553639324;38.086;27.344;29.785;34.668;25.391
1553639324;40.039;26.367;30.762;34.18;30.762
1553639324;25.391;24.414;37.109;27.344;31.25
1553639324;22.461;24.902;30.762;27.832;35.156
1553639324;31.25;23.438;29.785;27.832;40.527
1553639324;39.062;22.949;28.809;26.367;40.039
1553639324;56.152;25.879;23.438;37.598;54.688
1553639324;53.711;22.461;33.203;39.551;51.758
1553639324;9.277;11.719;37.109;15.137;10.254
1553639324;-6.348;13.672;33.691;2.93;-4.395
1553639324;-2.441;21.484;26.855;-6.836;-6.348
1553639324;-10.254;23.438;23.438;-19.043;-18.066
1553639324;-15.137;27.344;25.391;-27.344;-23.438
1553639324;-17.09;26.855;19.043;-27.344;-19.043
1553639324;-19.043;20.996;20.996;-20.02;-16.602
1553639324;-17.09;14.648;19.531;-18.555;-29.297
1553639324;-12.207;19.043;21.973;-13.672;-23.438
1553639324;-3.418;28.809;38.574;-2.441;-2.441
1553639324;-2.441;27.344;36.133;3.418;-4.883
1553639324;-2.441;31.738;32.715;6.348;-7.812
1553639324;3.906;35.156;38.086;12.207;3.418
1553639324;9.766;35.156;37.109;9.277;10.742
1553639324;11.719;34.668;35.156;8.789;10.742
1553639324;0;32.715;35.156;18.066;10.254
1553639324;5.371;34.18;35.156;10.742;13.184
1553639324;20.996;33.691;31.25;10.742;20.02
1553639324;20.508;32.715;29.297;18.555;25.879
1553639324;17.578;37.109;26.367;18.066;26.367
1553639324;22.949;36.133;27.344;23.438;22.949
1553639324;19.043;26.855;35.645;26.367;21.484
1553639324;17.09;23.926;36.133;18.555;23.438
1553639324;19.531;27.832;35.156;19.531;20.508
1553639324;22.461;27.832;37.109;27.344;19.043
1553639324;24.902;26.855;37.598;24.902;24.414
1553639324;23.438;27.832;35.645;21.484;35.645
1553639324;28.32;28.32;34.18;21.484;39.062
1553639324;34.668;35.645;31.25;25.879;39.062
1553639324;35.645;40.527;26.367;28.32;48.34
1553639324;35.156;35.156;27.344;24.414;47.852
1553639324;32.227;28.32;30.273;29.297;37.109
1553639324;31.25;35.156;30.762;29.297;37.598
1553639324;39.062;41.016;33.203;30.273;42.969
1553639324;36.133;32.227;39.062;46.387;43.457
1553639324;32.227;33.203;39.551;43.945;38.086
1553639324;37.109;41.992;32.227;28.32;31.738
1553639324;31.738;44.922;28.809;23.438;32.227
1553639324;33.691;46.387;36.621;25.391;36.133
1553639324;42.969;43.945;40.039;34.18;36.133
1553639324;37.109;40.039;27.832;31.738;37.598
1553639324;40.039;42.969;26.367;22.949;39.062
1553639324;44.434;43.457;34.668;13.184;34.668
1553639324;32.715;41.504;34.668;18.066;32.715
1553639324;31.25;41.016;33.203;24.414;32.227
1553639324;27.344;33.203;35.156;26.367;29.785
1553639324;25.391;33.203;30.273;28.809;27.832
1553639324;37.109;40.527;25.879;33.691;36.133
1553639324;37.109;41.504;30.762;32.227;39.062
1553639324;34.668;39.062;34.18;25.391;27.832
1553639324;39.062;40.527;37.598;26.855;27.344
1553639324;29.297;40.039;33.691;31.738;31.25
1553639324;25.879;33.203;29.297;33.203;32.227
1553639324;34.668;32.715;25.879;30.273;37.109
1553639324;37.109;39.062;26.367;29.785;37.598
1553639324;40.039;41.016;32.715;33.691;30.273
1553639324;39.551;39.551;32.227;36.133;33.203
1553639324;31.25;36.133;34.18;33.691;34.18
1553639324;32.715;35.156;35.156;29.785;28.809
1553639324;33.691;35.645;31.738;34.668;28.32
1553639324;34.668;32.227;31.25;32.227;28.809
1553639324;37.109;32.227;23.438;28.809;24.414
1553639324;32.227;35.645;22.949;35.156;22.461
1553639324;31.25;34.18;34.668;41.992;30.273
1553639324;38.574;32.227;37.598;42.48;40.039
1553639324;34.18;34.668;34.668;41.504;40.527
1553639324;32.227;36.133;34.668;31.738;37.109
1553639324;29.297;38.574;39.062;23.926;35.645
1553639324;26.855;41.992;38.574;27.832;33.203
1553639324;31.25;39.551;37.598;27.344;36.133
1553639324;39.551;38.574;33.691;27.832;35.156
1553639324;42.969;38.086;33.203;32.715;33.203
1553639324;33.691;37.109;34.668;34.668;33.203
1553639324;40.527;39.062;32.227;35.156;36.621
1553639324;49.805;42.48;35.156;38.086;37.598
1553639324;40.039;41.992;35.645;34.668;37.109
1553639324;32.227;39.551;28.809;34.18;39.062
1553639324;30.273;36.133;29.785;34.668;36.621
1553639324;34.668;36.133;36.621;35.156;38.086
1553639324;38.574;37.598;30.762;30.762;36.621
1553639324;37.598;38.086;25.391;35.156;36.133
1553639324;39.551;39.551;30.273;40.527;36.133
1553639324;46.875;40.039;26.367;37.598;36.133
1553639324;48.34;42.969;27.832;43.945;39.062
1553639324;31.25;44.922;33.203;35.645;37.598
1553639324;26.855;42.969;32.715;30.762;37.109
1553639324;41.504;42.48;35.156;36.621;42.48
1553639324;46.387;43.457;35.645;36.621;41.992
1553639324;40.039;43.457;27.832;38.086;37.598
1553639324;44.922;43.945;24.902;41.992;39.551
1553639324;57.617;44.922;30.762;43.945;39.551
1553639324;49.805;42.48;32.227;34.18;34.18
1553639324;41.016;42.969;35.156;30.762;30.762
1553639324;39.551;43.945;32.227;31.25;31.25
1553639324;41.016;41.016;30.762;33.203;37.598
1553639324;37.109;41.016;32.227;41.016;42.48
1553639324;31.25;42.48;30.273;39.062;39.062
1553639324;35.645;41.992;30.273;40.039;38.574
1553639324;41.992;41.992;29.785;41.992;41.992
1553639324;39.551;40.527;28.32;38.574;40.039
1553639324;30.273;40.527;30.273;36.133;34.668
1553639324;35.156;41.504;31.738;38.574;33.691
1553639324;47.363;44.434;31.25;41.992;40.527
1553639324;39.551;46.875;37.598;37.598;41.992
1553639324;42.48;45.41;39.551;38.086;33.691
1553639324;51.758;42.48;38.574;46.387;36.621
1553639324;41.992;40.039;37.109;43.457;40.039
1553639324;39.062;41.992;33.203;40.039;42.48
1553639324;38.574;40.527;30.762;41.016;41.992
1553639324;36.133;40.527;32.715;43.457;39.062
1553639324;32.715;40.039;32.715;40.039;37.598
1553639324;39.062;37.109;32.227;41.992;39.551
1553639324;39.551;38.574;33.691;47.852;41.504
1553639324;32.715;41.016;35.156;43.945;37.109
1553639324;30.273;39.551;32.715;34.668;28.809
1553639324;40.527;41.504;25.879;28.809;29.297
1553639324;42.48;44.434;25.879;29.785;36.133
1553639324;40.039;42.48;25.879;33.691;39.551
1553639324;43.457;41.016;23.438;36.133;38.086
1553639324;41.016;36.621;28.32;30.273;33.203
1553639324;41.992;31.738;33.203;27.832;31.25
1553639324;35.645;32.227;34.668;32.227;32.227
1553639324;24.902;38.086;37.109;33.691;32.227
1553639324;24.902;42.969;33.691;41.504;32.715
1553639324;34.668;43.945;28.809;48.828;39.551
1553639324;46.875;46.387;31.25;43.457;45.898
1553639324;60.059;49.316;33.691;35.645;42.969
1553639324;56.152;44.922;31.25;36.621;39.551
1553639324;31.738;40.527;32.227;39.062;42.48
1553639324;22.461;39.551;27.344;31.25;43.945
1553639324;24.902;39.062;21.973;25.391;37.598
1553639324;32.715;39.551;29.297;31.25;36.133
1553639324;36.133;37.598;24.902;40.039;37.598
1553639324;26.367;33.203;16.602;38.574;36.133
1553639324;15.625;29.785;24.902;31.25;29.785
1553639324;10.742;29.785;28.809;35.645;27.344
1553639324;16.113;30.762;28.32;34.668;29.785
1553639324;25.391;32.227;28.809;29.785;37.109
1553639324;29.785;36.621;31.738;34.668;38.574
1553639324;37.598;37.598;28.809;38.086;38.086
1553639324;34.668;37.109;20.02;30.762;41.504
1553639324;32.715;38.574;18.555;26.367;36.621
1553639324;40.039;38.086;30.273;29.785;37.109
1553639324;34.668;35.645;41.992;34.18;35.156
1553639324;38.086;33.203;39.062;28.32;29.297
1553639324;32.227;30.273;35.645;30.273;30.762
1553639324;28.809;27.832;37.598;38.574;35.645
1553639324;36.621;29.297;34.668;32.227;31.738
1553639324;36.133;32.715;31.25;29.297;31.738
1553639324;35.156;31.738;33.203;32.227;36.133
1553639324;28.32;30.762;32.227;33.203;30.762
1553639324;23.926;32.715;27.344;29.785;24.902
1553639324;34.18;30.273;26.855;28.809;20.996
1553639324;30.762;31.738;25.391;32.227;22.461
1553639324;19.531;33.203;25.879;25.879;26.367
1553639324;35.156;31.738;29.785;25.879;27.832
1553639324;40.039;33.203;25.879;37.109;32.227
1553639324;21.484;32.715;24.414;34.18;33.691
1553639324;28.32;31.738;26.855;32.227;32.227
1553639324;35.156;31.25;32.715;39.551;37.109
1553639325;27.344;25.879;35.156;37.598;34.668
1553639325;26.367;25.391;30.762;34.18;33.691
1553639325;31.25;24.902;28.32;40.527;33.203
1553639325;36.133;26.855;31.25;49.805;34.668
1553639325;44.922;31.738;35.645;53.223;33.203
1553639325;50.781;32.227;35.645;46.875;28.32
1553639325;46.387;34.668;31.25;42.48;32.715
1553639325;39.551;37.109;32.715;40.039;36.133
1553639325;32.715;38.086;31.25;37.598;28.809
1553639325;37.109;40.039;30.273;38.574;22.949
1553639325;39.551;41.504;41.504;36.621;24.414
1553639325;28.32;40.527;42.969;31.738;28.32
1553639325;23.438;38.086;40.039;30.762;29.297
1553639325;32.715;33.691;41.992;29.297;26.855
1553639325;43.457;29.297;40.527;31.738;33.203
1553639325;37.598;29.785;41.504;40.039;40.527
1553639325;34.18;31.738;38.086;41.992;38.574
1553639325;43.945;30.762;37.598;39.551;31.738
1553639325;40.527;27.832;34.668;36.621;35.645
1553639325;35.156;24.414;33.691;41.504;55.176
1553639325;36.621;23.438;42.969;44.434;52.246
1553639325;33.203;26.367;37.598;30.273;29.785
1553639325;35.156;28.32;34.18;24.414;21.484
1553639325;41.992;23.926;36.621;18.066;15.625
1553639325;36.621;20.508;37.598;14.648;17.09
1553639325;35.156;16.113;37.109;24.414;29.297
1553639325;40.527;12.207;34.668;27.832;28.809
1553639325;29.785;15.625;37.109;22.949;34.668
1553639325;24.414;17.09;36.621;26.855;39.551
1553639325;26.367;17.09;36.621;30.273;39.551
1553639325;34.18;19.531;31.25;34.18;48.828
1553639325;39.062;17.09;21.973;44.922;42.48
1553639325;35.645;15.625;29.785;37.598;32.715
1553639325;28.809;18.066;38.574;35.156;30.273
1553639325;39.551;20.996;37.109;40.527;30.273
1553639325;53.223;25.879;34.668;41.504;29.785
1553639325;48.828;28.32;35.645;42.969;28.809
1553639325;40.039;25.391;37.109;44.434;34.668
1553639325;33.691;26.367;34.18;38.086;37.109
1553639325;28.809;25.391;26.855;31.25;35.156
1553639325;33.203;23.926;25.879;42.48;37.598
1553639325;41.504;25.879;28.809;51.27;40.527
1553639325;36.133;23.926;25.879;42.969;45.41
1553639325;42.48;20.508;33.203;42.969;43.457
1553639325;54.688;21.484;39.062;41.992;36.133
1553639325;37.109;23.926;38.574;33.691;35.645
1553639325;23.926;22.949;33.203;36.621;40.039
1553639325;31.738;23.926;33.691;34.668;44.434
1553639325;32.227;26.855;39.551;31.25;44.434
1553639325;43.945;25.879;37.109;41.992;46.875
1553639325;54.688;26.855;34.668;40.039;44.922
1553639325;50.293;28.32;31.738;31.738;34.668
1553639325;33.691;26.855;28.809;34.668;34.18
1553639325;24.414;25.879;30.273;37.598;39.062
1553639325;31.738;26.855;32.227;38.086;35.156
1553639325;38.574;31.25;34.668;37.109;32.227
1553639325;42.48;35.156;34.18;46.387;31.738
1553639325;41.016;32.715;34.668;42.969;31.738
1553639325;36.133;31.25;35.156;37.598;34.668
1553639325;27.344;28.809;30.762;33.691;32.227
1553639325;23.438;25.391;26.855;29.297;27.832
1553639325;20.02;23.926;26.855;31.738;28.32
1553639325;28.32;23.438;27.832;26.855;26.367
1553639325;34.668;24.414;31.25;30.273;27.344
1553639325;48.34;25.879;27.832;35.156;32.715
1553639325;49.805;29.297;24.414;30.762;31.25
1553639325;37.109;30.273;30.273;31.738;35.156
1553639325;41.016;32.715;30.273;38.086;41.016
1553639325;36.133;31.738;28.32;46.387;38.086
1553639325;34.18;33.203;27.344;45.41;35.156
1553639325;43.457;36.133;28.809;35.645;40.039
1553639325;44.922;35.645;30.273;39.062;48.34
1553639325;37.598;35.645;31.25;39.551;42.969
1553639325;36.133;35.156;33.203;37.598;36.621
1553639325;42.969;34.668;30.762;36.621;34.18
1553639325;48.34;33.691;32.715;39.062;32.715
1553639325;41.992;32.227;33.203;41.016;36.621
1553639325;32.227;29.297;29.785;38.574;32.715
1553639325;30.273;25.879;22.461;34.18;31.25
1553639325;26.855;23.438;20.02;27.344;38.086
1553639325;29.297;23.926;27.344;21.973;35.156
1553639325;34.18;27.344;33.691;23.438;33.691
1553639325;31.25;29.785;34.18;29.785;37.109
1553639325;29.785;30.273;29.785;32.715;37.109
1553639325;31.25;28.809;30.273;31.738;37.109
1553639325;41.016;26.855;27.832;38.086;38.086
1553639325;41.992;28.809;27.832;36.621;40.039
1553639325;35.156;30.762;27.832;31.25;46.387
1553639325;30.273;27.344;29.297;29.785;45.41
1553639325;37.598;28.32;35.156;28.809;36.621
1553639325;35.645;34.18;34.668;36.621;32.227
1553639325;27.832;35.156;41.504;36.133;36.133
1553639325;29.785;32.715;40.527;32.715;43.945
1553639325;40.039;33.203;35.156;37.598;45.41
1553639325;43.457;34.668;39.062;35.156;38.574
1553639325;37.109;37.109;45.41;40.039;38.086
1553639325;40.039;39.062;45.898;49.316;44.922
1553639325;36.133;37.109;43.945;41.016;43.945
1553639325;29.297;38.086;44.434;39.062;36.621
1553639325;37.109;40.039;40.039;44.922;37.109
1553639325;31.25;40.527;39.062;50.781;39.062
1553639325;35.645;43.945;40.039;53.223;41.016
1553639325;52.734;47.363;38.086;44.922;38.574
1553639325;52.246;40.039;41.504;46.387;33.691
1553639325;49.316;37.109;41.992;47.852;34.668
1553639325;42.48;38.574;37.109;41.992;37.109
1553639325;37.598;35.645;33.691;46.387;38.086
1553639325;34.668;38.574;32.715;50.781;41.504
1553639325;36.133;42.48;33.691;42.969;42.48
1553639325;32.715;42.969;33.691;43.457;43.457
1553639325;23.926;41.016;31.25;53.223;45.898
1553639325;38.086;43.945;23.438;53.223;44.434
1553639325;41.504;44.922;26.855;47.363;43.945
1553639325;41.992;41.016;35.645;46.387;43.457
1553639325;37.109;36.133;34.18;42.48;41.504
1553639325;34.18;37.598;35.156;40.527;39.062
1553639325;39.551;37.598;32.715;41.504;37.598
1553639325;33.203;38.086;34.18;43.457;41.992
1553639325;49.316;38.574;36.621;50.293;49.805
1553639325;46.387;37.598;36.621;49.805;49.316
1553639325;30.273;37.598;41.504;50.781;44.922
1553639325;38.574;37.598;41.992;51.27;45.41
1553639325;40.527;39.062;40.527;48.828;49.316
1553639325;51.27;41.504;39.551;50.781;50.293
1553639325;48.828;46.875;34.668;50.781;46.387
1553639325;39.062;41.016;26.855;56.641;46.875
1553639325;42.48;33.691;31.738;51.758;48.34
1553639325;41.992;36.133;37.109;41.992;45.898
1553639325;39.551;34.18;34.668;36.133;36.133
1553639325;35.645;33.691;39.062;33.691;29.785
1553639325;30.273;35.645;41.504;41.992;34.18
1553639325;32.715;38.086;37.109;43.457;36.133
1553639325;36.621;39.062;30.273;39.062;35.156
1553639325;26.367;33.203;28.809;39.062;29.297
1553639325;33.203;32.227;32.227;40.039;25.391
1553639325;36.621;33.203;27.832;38.574;20.508
1553639325;20.996;30.762;20.508;28.809;15.625
1553639325;24.414;28.32;21.484;23.438;18.555
1553639325;37.109;29.785;27.832;30.273;20.508
1553639325;39.062;30.273;32.227;31.25;24.414
1553639325;26.367;26.367;31.738;27.832;24.414
1553639325;20.996;26.855;34.18;32.715;23.926
1553639325;22.949;30.762;37.109;33.203;24.902
1553639325;25.879;30.762;29.297;27.832;20.996
1553639325;42.48;32.715;20.996;25.879;21.484
1553639325;36.133;30.273;27.344;25.391;18.555
1553639325;14.648;27.832;35.156;21.484;15.137
1553639325;14.16;31.738;34.18;26.367;19.043
1553639325;25.391;32.715;31.25;33.203;24.414
1553639325;31.738;36.133;35.645;33.203;22.949
1553639325;31.738;38.086;38.086;33.203;22.949
1553639325;29.297;35.645;31.25;33.691;28.32
1553639325;26.855;33.203;32.715;34.668;35.156
1553639325;42.48;32.715;35.156;33.203;38.574
1553639325;50.293;36.133;34.18;33.203;38.574
1553639325;32.715;38.574;36.621;24.414;35.645
1553639325;27.344;36.621;34.668;27.344;34.668
1553639325;24.414;33.691;28.32;28.809;30.273
1553639325;29.297;33.203;25.391;20.996;25.391
1553639325;31.738;34.18;22.461;27.344;29.785
1553639325;28.809;37.598;23.926;35.156;31.738
1553639325;31.738;34.18;34.18;29.785;29.785
1553639325;31.25;28.32;39.551;33.691;25.391
1553639325;13.184;29.297;37.598;39.062;22.461
1553639325;9.766;34.18;32.227;36.133;25.879
1553639325;27.832;33.691;32.227;33.203;28.809
1553639325;21.973;28.809;32.715;27.832;23.926
1553639325;17.09;30.762;24.902;25.391;21.973
1553639325;25.879;33.691;22.949;26.855;21.973
1553639325;31.738;30.273;28.809;24.902;21.484
1553639325;29.297;28.809;26.855;21.484;20.508
1553639325;37.109;28.809;27.832;26.367;13.672
1553639325;31.738;29.785;34.668;26.367;13.184
1553639325;20.02;32.227;29.785;23.926;15.137
1553639325;17.578;34.668;24.902;21.973;15.137
1553639325;12.207;31.738;30.273;22.461;16.113
1553639325;20.02;28.809;33.203;16.602;10.254
1553639325;21.484;32.227;31.738;10.742;8.301
1553639325;25.879;36.133;33.203;16.602;14.16
1553639325;28.809;37.598;29.297;20.508;16.113
1553639325;28.809;34.668;27.832;23.926;12.695
1553639325;35.156;33.203;30.762;20.508;12.695
1553639325;32.715;33.203;37.109;24.902;18.555
1553639325;21.973;31.25;45.898;38.086;21.973
1553639325;18.555;30.273;44.922;29.785;19.043
1553639325;21.973;36.621;42.969;19.531;16.602
1553639325;23.438;41.016;43.945;25.391;20.996
1553639325;32.715;38.086;41.992;20.996;24.414
1553639325;26.855;38.086;39.062;17.09;18.555
1553639325;16.113;39.551;41.504;18.555;18.555
1553639325;31.738;40.527;41.016;20.508;23.926
1553639325;33.203;39.551;38.574;26.367;21.484
1553639325;16.602;41.504;39.551;23.438;16.602
1553639325;17.09;42.969;34.18;11.719;18.066
1553639325;20.508;40.527;32.715;4.883;25.391
1553639325;23.438;40.527;36.621;7.324;30.762
1553639325;32.227;41.016;34.668;14.16;24.902
1553639325;21.973;41.992;30.273;13.672;17.09
1553639325;4.883;41.992;31.738;17.09;15.137
1553639325;2.441;40.039;45.898;20.996;19.043
1553639325;3.418;41.504;53.711;15.625;20.508
1553639325;2.93;41.992;50.781;9.277;14.16
1553639325;9.277;37.598;52.734;16.113;20.02
1553639325;33.691;30.762;57.129;34.18;46.875
1553639325;26.855;37.109;53.223;8.301;34.18
1553639325;-0.488;47.363;38.574;-24.902;-15.625
1553639325;-2.93;50.293;32.715;-27.344;-32.715
1553639325;-8.789;53.711;36.621;-17.09;-23.926
1553639325;-24.414;56.641;41.992;-15.625;-30.273
1553639325;-31.25;61.035;37.598;-31.738;-41.504
1553639325;-39.062;65.43;34.18;-56.641;-48.828
1553639325;-56.152;69.824;35.156;-74.219;-58.105
1553639325;-52.246;76.66;35.645;-70.312;-54.199
1553639325;-43.457;85.449;38.574;-68.848;-63.965
1553639325;-50.293;87.402;37.598;-75.684;-78.125
1553639325;-56.152;88.867;39.551;-83.496;-80.566
1553639325;-56.152;94.238;39.062;-79.102;-81.543
1553639325;-69.336;101.074;37.598;-86.426;-83.008
1553639325;-61.035;104.004;42.48;-88.379;-77.148
1553639325;-51.758;106.445;46.875;-85.938;-53.223
1553639325;-50.781;111.816;48.34;-91.797;-56.152
1553639325;-41.016;114.258;42.48;-75.195;-68.359
1553639325;-43.945;110.84;39.062;-55.664;-66.406
1553639325;-38.574;104.98;40.039;-52.734;-61.523
1553639325;-20.996;101.074;44.434;-55.176;-56.641
1553639325;-9.766;92.285;42.969;-49.805;-38.574
1553639325;-9.277;82.031;41.992;-38.086;-25.879
1553639325;16.113;76.66;42.48;-26.855;-19.531
1553639325;26.367;72.266;34.668;-6.836;3.906
1553639325;31.738;65.918;32.715;8.789;23.438
1553639325;57.617;57.129;31.738;25.391;47.363
1553639325;74.707;49.316;25.879;48.34;66.406
1553639325;94.238;42.969;24.902;70.801;75.195
1553639325;108.887;37.109;27.832;89.844;91.309
1553639325;117.188;31.25;28.32;95.215;95.215
1553639325;145.508;29.785;24.902;106.445;108.887
1553639325;157.227;31.25;22.949;144.043;145.996
1553639325;148.438;25.391;27.344;158.203;152.344
1553639325;160.156;20.996;34.18;153.809;137.207
1553639325;177.246;22.461;27.344;165.527;145.508
1553639325;182.617;26.367;20.996;165.527;160.156
1553639325;180.176;20.996;31.25;163.574;157.227
1553639325;191.406;15.137;35.156;164.551;153.32
1553639325;198.73;19.043;29.785;171.387;159.668
1553639325;183.105;17.578;28.32;173.34;163.574
1553639325;168.945;15.137;29.785;166.016;159.668
1553639325;180.176;15.137;27.832;166.016;165.527
1553639325;188.477;12.695;28.809;169.434;160.645
1553639325;167.48;13.672;30.273;170.41;149.414
1553639325;156.25;15.625;33.691;161.133;146.973
1553639325;148.926;18.555;28.809;150.391;139.648
1553639325;144.043;22.461;26.855;138.184;137.207
1553639325;138.184;24.414;32.715;132.324;130.859
1553639325;137.695;21.484;36.621;128.906;122.07
1553639325;136.23;22.949;36.621;131.348;121.094
1553639325;140.137;30.273;34.18;137.695;125.977
1553639326;150.391;33.691;35.645;137.207;131.836
1553639326;138.672;34.668;36.133;130.371;131.836
1553639326;130.859;34.18;38.086;132.812;131.348
1553639326;134.766;35.156;38.086;125;127.441
1553639326;120.605;33.691;31.738;113.77;127.441
1553639326;106.934;29.785;27.344;117.188;122.559
1553639326;111.328;30.762;29.297;113.77;105.957
1553639326;103.027;28.32;27.832;117.188;101.074
1553639326;99.121;30.273;24.414;118.164;97.168
1553639326;104.004;30.273;32.715;93.262;86.914
1553639326;100.586;25.879;40.527;81.543;89.355
1553639326;87.891;30.762;44.434;87.402;99.609
1553639326;84.961;32.715;44.922;102.539;101.074
1553639326;104.004;32.715;40.527;100.586;94.727
1553639326;111.816;36.621;40.527;91.797;93.75
1553639326;91.309;35.645;42.969;91.309;98.633
1553639326;78.125;32.227;39.551;86.426;102.051
1553639326;74.707;28.809;39.062;91.309;90.82
1553639326;79.102;24.414;38.574;93.262;92.285
1553639326;80.566;29.297;31.25;87.402;84.961
1553639326;72.266;33.203;32.227;89.844;74.707
1553639326;67.871;35.156;38.086;85.938;73.73
1553639326;68.848;36.133;36.133;80.566;70.801
1553639326;81.543;33.203;31.738;80.566;71.289
1553639326;84.473;35.156;29.785;71.777;71.777
1553639326;73.242;34.18;23.926;76.172;68.359
1553639326;62.988;28.809;23.926;85.938;62.012
1553639326;61.035;25.391;32.227;78.613;62.988
1553639326;54.688;30.762;31.25;71.777;68.848
1553639326;57.129;32.715;31.738;66.895;66.406
1553639326;59.082;29.785;38.086;66.406;48.34
1553639326;63.477;31.738;35.156;73.73;63.477
1553639326;54.199;32.715;30.273;65.918;81.543
1553639326;42.48;31.738;23.438;61.523;47.852
1553639326;60.059;27.832;20.508;68.848;26.367
1553639326;50.293;24.902;30.273;83.984;29.785
1553639326;45.898;27.344;31.25;79.59;40.527
1553639326;46.387;30.762;25.391;56.152;43.457
1553639326;47.852;36.133;24.902;54.199;46.875
1553639326;78.613;45.898;23.438;83.984;79.59
1553639326;78.125;43.945;34.18;101.074;87.891
1553639326;42.969;34.18;46.387;73.242;53.223
1553639326;15.625;25.879;42.48;40.039;23.438
1553639326;25.879;20.996;35.156;20.508;13.184
1553639326;17.09;14.648;30.273;11.23;5.859
1553639326;-23.438;7.812;31.738;6.836;-1.465
1553639326;-52.246;6.348;38.574;-16.602;-19.043
1553639326;-62.5;4.883;38.574;-29.785;-38.086
1553639326;-53.223;0.488;32.715;-23.438;-39.062
1553639326;-58.105;-0.977;27.832;-37.109;-43.457
1553639326;-75.195;-5.371;28.32;-49.805;-58.594
1553639326;-86.914;-10.742;32.227;-47.852;-49.805
1553639326;-80.566;-7.812;32.227;-48.34;-41.016
1553639326;-84.961;-7.324;33.203;-57.617;-66.406
1553639326;-97.656;-10.742;35.156;-50.293;-76.172
1553639326;-91.797;-8.789;37.109;-33.691;-60.059
1553639326;-79.59;-6.836;38.086;-22.461;-54.688
1553639326;-59.082;-3.418;31.738;-15.625;-54.688
1553639326;-62.5;4.883;29.297;-25.391;-49.805
1553639326;-70.312;2.93;31.738;-31.25;-37.109
1553639326;-60.547;-2.441;31.25;-23.926;-26.855
1553639326;-53.711;3.418;31.25;-16.602;-23.926
1553639326;-45.898;7.812;26.367;-11.719;-20.508
1553639326;-30.273;7.812;29.297;-8.301;-16.602
1553639326;-21.973;5.371;33.203;-3.418;-13.184
1553639326;-15.137;3.906;28.809;12.207;-9.277
1553639326;-4.883;5.371;25.879;29.297;-2.441
1553639326;-11.719;5.859;23.438;13.184;3.418
1553639326;-10.254;5.371;25.391;15.625;8.301
1553639326;-0.977;5.859;23.926;29.297;9.277
1553639326;-9.766;8.301;20.508;18.555;10.742
1553639326;-19.043;12.207;20.02;13.672;20.02
1553639326;-8.301;3.906;22.461;31.25;22.461
1553639326;3.906;2.93;30.273;40.527;20.508
1553639326;11.23;16.602;30.273;28.32;20.02
1553639326;20.508;23.926;24.902;20.02;24.414
1553639326;35.156;26.855;25.391;19.531;31.25
1553639326;28.32;30.762;29.785;29.297;33.203
1553639326;25.391;29.297;28.32;35.156;40.527
1553639326;26.367;25.879;25.391;42.969;50.293
1553639326;23.438;27.832;25.391;45.41;51.758
1553639326;23.926;23.438;26.367;43.457;44.434
1553639326;25.391;21.484;32.715;45.41;41.016
1553639326;35.645;24.902;24.414;41.016;42.969
1553639326;33.691;22.461;26.367;42.48;43.457
1553639326;44.922;23.926;37.598;44.922;38.574
1553639326;52.246;22.461;33.691;44.922;30.762
1553639326;21.484;13.184;30.273;41.016;25.391
1553639326;21.484;11.23;32.715;40.039;25.879
1553639326;33.203;24.414;35.645;45.898;23.926
1553639326;24.902;29.297;33.203;34.668;18.066
1553639326;18.555;29.785;33.691;30.273;22.461
1553639326;23.926;35.645;36.133;32.227;35.156
1553639326;31.738;37.109;41.016;30.273;41.992
1553639326;32.715;34.18;39.062;25.879;38.086
1553639326;45.898;30.273;34.18;32.715;33.691
1553639326;49.316;30.762;35.645;34.668;36.133
1553639326;31.738;20.508;34.18;38.574;38.086
1553639326;38.574;12.207;40.039;45.41;39.551
1553639326;45.898;29.297;45.898;46.387;40.039
1553639326;50.293;8.301;47.852;54.199;40.039
1553639326;49.316;4.883;46.387;66.895;39.551
1553639326;47.363;50.293;42.969;48.828;41.992
1553639326;50.781;62.988;45.898;27.832;41.504
1553639326;35.645;61.035;41.992;26.855;31.25
1553639326;20.02;55.664;32.715;24.902;30.273
1553639326;19.531;48.828;37.109;26.367;28.809
1553639326;31.738;44.922;34.18;37.109;24.414
1553639326;34.668;40.527;29.785;28.809;24.902
1553639326;40.039;33.691;32.715;27.832;32.715
1553639326;40.039;34.668;34.668;34.18;35.645
1553639326;36.621;32.715;27.832;35.645;27.344
1553639326;36.133;24.902;16.602;39.062;24.414
1553639326;44.922;25.391;20.02;26.855;32.227
1553639326;51.27;36.133;30.762;32.227;39.062
1553639326;34.18;41.504;32.715;51.758;36.133
1553639326;40.527;40.039;29.785;52.734;30.762
1553639326;39.551;36.621;31.25;36.133;27.832
1553639326;38.574;35.645;33.203;29.785;33.691
1553639326;44.922;37.109;34.18;28.32;36.621
1553639326;34.668;37.598;35.156;27.832;34.18
1553639326;32.715;39.062;35.156;36.133;35.645
1553639326;32.715;36.133;33.203;50.293;35.645
1553639326;33.203;30.762;26.367;55.176;36.133
1553639326;30.762;27.344;26.367;39.062;33.691
1553639326;39.062;27.344;35.645;32.715;31.738
1553639326;41.016;23.926;35.645;28.32;30.762
1553639326;20.02;21.484;26.367;23.926;28.32
1553639326;25.879;28.32;26.367;33.691;26.855
1553639326;41.992;31.738;31.738;30.762;28.32
1553639326;35.156;28.32;30.273;34.668;27.832
1553639326;33.203;26.855;30.273;33.691;29.297
1553639326;32.715;23.438;30.273;20.996;25.879
1553639326;17.578;16.602;27.832;20.996;20.996
1553639326;27.832;15.625;23.438;16.602;23.438
1553639326;38.574;18.066;24.902;23.926;27.832
1553639326;28.809;17.09;28.809;27.344;24.414
1553639326;29.297;18.555;27.832;26.367;17.578
1553639326;31.738;16.113;27.344;25.391;22.461
1553639326;29.297;17.09;30.762;23.438;29.785
1553639326;31.25;22.949;34.18;19.531;27.832
1553639326;28.32;22.461;32.715;7.812;14.648
1553639326;22.461;26.367;32.227;17.578;9.766
1553639326;25.879;25.879;32.715;28.32;18.066
1553639326;24.902;23.438;32.227;28.809;27.344
1553639326;33.691;24.902;35.156;36.621;41.504
1553639326;47.363;27.344;36.133;39.062;37.598
1553639326;27.344;31.738;33.203;19.043;11.719
1553639326;1.465;36.133;31.25;0.977;5.859
1553639326;8.789;41.016;27.344;0.488;6.348
1553639326;19.531;45.898;20.02;9.277;7.324
1553639326;24.414;48.34;21.973;17.578;14.16
1553639326;20.508;50.781;23.438;12.207;14.648
1553639326;27.344;50.293;22.949;1.953;15.137
1553639326;48.828;52.734;26.855;12.695;19.531
1553639326;47.852;50.781;35.645;23.926;26.367
1553639326;32.715;43.457;40.039;38.086;26.367
1553639326;28.32;47.852;39.551;54.199;30.762
1553639326;35.156;49.805;39.551;48.34;38.574
1553639326;37.109;47.363;35.645;34.668;39.062
1553639326;36.621;50.293;33.691;29.785;40.039
1553639326;47.852;51.758;33.691;42.48;44.434
1553639326;49.805;52.734;34.668;37.598;44.922
1553639326;29.297;54.688;35.156;32.227;45.898
1553639326;35.156;54.199;31.738;42.969;43.457
1553639326;53.223;51.758;31.25;52.734;42.969
1553639326;47.363;45.898;35.156;40.527;47.363
1553639326;34.668;44.434;36.133;24.902;41.992
1553639326;32.715;47.852;33.203;32.715;39.062
1553639326;28.32;49.805;35.156;38.086;43.945
1553639326;42.969;49.805;37.598;35.156;40.039
1553639326;46.875;48.828;31.25;31.738;35.645
1553639326;26.367;43.945;32.227;27.344;36.621
1553639326;29.785;41.016;39.551;31.738;38.086
1553639326;30.762;43.457;41.504;41.016;42.48
1553639326;30.762;41.504;38.086;43.945;36.621
1553639326;36.133;40.039;31.738;35.645;39.551
1553639326;42.48;40.039;30.762;40.039;39.062
1553639326;52.734;42.969;33.691;51.27;35.156
1553639326;41.992;41.504;35.156;42.48;40.527
1553639326;26.855;37.598;32.227;26.367;41.016
1553639326;41.016;42.48;32.715;17.578;40.527
1553639326;43.457;44.922;35.645;18.555;43.457
1553639326;29.785;44.922;39.551;32.227;47.852
1553639326;27.832;43.945;35.156;40.039;43.945
1553639326;19.043;36.621;31.25;32.715;38.086
1553639326;16.602;35.645;36.133;23.438;38.574
1553639326;36.133;36.621;39.551;23.926;34.668
1553639326;36.621;35.645;41.504;34.18;30.273
1553639326;41.504;39.551;36.133;31.25;33.691
1553639326;41.504;39.062;31.738;29.297;32.227
1553639326;21.484;38.574;36.621;34.668;28.32
1553639326;29.297;43.945;36.621;37.109;28.809
1553639326;35.156;44.922;36.133;38.574;29.785
1553639326;25.879;42.969;38.574;33.203;34.668
1553639326;22.461;43.457;36.133;27.832;40.527
1553639326;39.551;41.504;36.621;24.902;39.062
1553639326;51.758;40.527;37.109;22.461;38.574
1553639326;28.809;41.016;32.715;17.09;36.133
1553639326;16.113;39.062;31.738;25.391;36.621
1553639326;32.227;38.574;35.156;41.016;38.086
1553639326;43.945;40.039;30.273;33.203;35.156
1553639326;35.156;35.645;30.762;23.926;37.109
1553639326;29.297;30.762;35.645;37.109;42.48
1553639326;38.574;32.227;33.691;36.133;49.316
1553639326;41.504;36.621;37.598;41.016;49.316
1553639326;30.762;41.992;41.016;51.27;41.504
1553639326;38.574;43.945;34.18;33.691;36.621
1553639326;46.875;42.969;32.715;27.344;38.574
1553639326;32.715;40.039;34.668;41.992;33.691
1553639326;29.785;39.551;33.691;53.223;27.832
1553639326;24.902;41.992;33.203;43.457;30.762
1553639326;18.555;42.969;34.18;35.156;36.621
1553639326;26.855;44.434;36.621;32.227;37.598
1553639326;33.203;42.48;37.598;23.438;35.156
1553639326;38.574;40.527;40.527;31.738;41.504
1553639326;53.223;40.039;37.598;39.062;42.969
1553639326;50.781;38.574;35.645;41.016;41.992
1553639326;36.621;40.039;35.156;47.852;42.48
1553639326;24.902;39.551;36.133;38.086;31.25
1553639326;20.02;34.18;39.551;41.016;27.832
1553639326;26.367;32.715;39.551;39.551;32.715
1553639326;36.621;33.203;42.969;31.738;35.645
1553639326;38.086;35.156;44.434;35.645;38.574
1553639326;32.227;35.156;43.457;31.738;35.156
1553639326;34.668;33.691;34.18;30.762;37.598
1553639326;35.156;37.598;34.18;49.316;35.156
1553639326;45.41;42.48;43.457;48.34;29.785
1553639326;52.246;43.457;42.969;30.273;30.762
1553639326;39.062;41.016;34.18;33.203;32.715
1553639326;26.367;39.062;27.344;31.738;26.855
1553639326;18.555;33.203;35.645;31.25;23.926
1553639326;24.902;32.227;42.969;39.551;32.227
1553639326;40.039;35.156;40.527;36.621;34.18
1553639326;36.621;33.691;41.504;40.527;34.18
1553639326;34.668;34.18;42.48;48.34;32.227
1553639326;26.855;35.156;39.062;50.293;30.273
1553639326;22.461;34.18;37.109;34.18;33.203
1553639326;27.344;39.551;37.598;29.785;35.156
1553639326;34.18;40.527;34.668;33.691;36.133
1553639326;40.527;37.598;35.156;30.762;36.621
1553639326;37.598;39.062;41.016;34.18;39.062
1553639326;37.109;40.527;44.434;40.527;39.551
1553639326;52.734;43.457;43.945;42.969;40.527
1553639326;55.664;37.109;39.062;41.992;41.504
1553639326;43.945;38.574;37.109;37.598;33.203
1553639326;44.922;44.922;36.621;38.086;33.691
1553639326;41.992;39.551;37.598;42.969;35.645
1553639326;33.691;40.527;36.133;28.32;31.738
1553639326;39.551;43.457;35.156;29.785;35.645
1553639326;33.691;43.457;36.133;42.48;42.969
1553639326;30.762;42.969;33.691;32.715;50.293
1553639326;46.387;43.945;30.762;26.367;46.875
1553639326;47.363;43.457;27.344;31.738;45.41
1553639326;39.062;39.551;25.391;31.25;52.246
1553639326;33.203;36.133;32.227;34.18;45.41
1553639327;31.25;34.668;35.156;48.34;38.086
1553639327;36.621;32.227;37.598;52.246;37.598
1553639327;33.203;35.156;39.551;36.133;35.645
1553639327;32.227;39.062;40.039;35.156;38.574
1553639327;30.762;35.156;38.574;33.691;30.762
1553639327;19.531;33.691;33.691;28.32;19.531
1553639327;13.184;33.691;36.621;40.527;25.879
1553639327;25.391;29.297;38.574;42.969;27.344
1553639327;20.02;30.273;35.645;39.062;25.879
1553639327;23.926;34.18;38.086;30.273;29.297
1553639327;31.25;35.645;37.109;25.879;26.855
1553639327;24.902;39.551;35.645;20.508;30.273
1553639327;21.973;37.598;37.109;20.996;32.227
1553639327;22.461;37.109;34.668;30.762;26.367
1553639327;27.832;40.527;32.227;29.297;24.902
1553639327;35.156;41.992;35.156;26.367;27.344
1553639327;30.273;42.48;38.574;28.809;28.809
1553639327;23.438;38.574;40.039;26.855;24.414
1553639327;34.668;41.504;41.016;22.461;24.902
1553639327;30.273;45.898;42.48;12.207;21.973
1553639327;12.695;42.48;43.457;3.418;12.695
1553639327;2.441;37.598;40.527;5.371;6.836
1553639327;2.441;38.086;43.457;27.832;13.184
1553639327;11.719;46.875;52.246;18.555;14.16
1553639327;4.395;55.176;48.828;-24.414;-12.207
1553639327;-17.09;54.199;41.992;-36.133;-28.809
1553639327;-16.113;52.734;45.41;-36.621;-27.832
1553639327;-21.484;56.152;46.387;-45.898;-34.668
1553639327;-48.34;61.523;45.41;-55.664;-46.387
1553639327;-52.246;71.289;43.457;-63.965;-52.734
1553639327;-55.664;77.148;42.969;-64.453;-63.477
1553639327;-56.641;77.148;47.852;-63.965;-72.266
1553639327;-70.312;83.984;54.199;-71.777;-73.73
1553639327;-83.984;90.82;55.176;-83.008;-78.125
1553639327;-84.473;96.191;56.641;-85.938;-83.984
1553639327;-95.215;105.957;59.082;-103.027;-100.098
1553639327;-102.539;112.305;55.664;-122.559;-108.887
1553639327;-90.332;114.258;52.246;-109.863;-99.609
1553639327;-86.426;114.746;52.246;-98.633;-100.586
1553639327;-86.426;118.652;56.641;-108.887;-108.398
1553639327;-94.238;121.582;59.57;-116.211;-107.91
1553639327;-101.562;121.582;55.664;-118.652;-106.445
1553639327;-92.285;118.164;47.852;-121.094;-102.051
1553639327;-83.008;115.234;46.875;-102.051;-90.82
1553639327;-76.66;114.746;55.176;-84.961;-88.379
1553639327;-62.988;107.422;54.688;-78.125;-79.59
1553639327;-65.918;101.562;50.293;-76.172;-67.383
1553639327;-65.43;101.074;43.945;-81.055;-65.918
1553639327;-31.25;96.68;40.039;-58.105;-38.086
1553639327;-11.719;91.797;38.086;-25.879;-18.555
1553639327;-5.859;88.379;34.668;-16.602;-13.672
1553639327;-10.742;81.543;30.762;-15.137;-3.906
1553639327;-3.906;71.777;29.297;-5.859;12.695
1553639327;35.645;66.895;29.785;7.324;33.691
1553639327;38.574;59.57;29.785;17.09;41.504
1553639327;22.461;44.434;27.832;23.926;41.504
1553639327;46.875;34.18;18.555;41.504;54.199
1553639327;72.754;33.691;17.578;72.266;69.824
1553639327;84.473;27.832;21.973;88.867;83.008
1553639327;86.914;17.578;22.461;86.914;95.703
1553639327;99.121;12.695;20.02;100.098;102.539
1553639327;116.699;10.254;14.16;121.582;112.305
1553639327;125.977;5.371;17.09;134.766;125.488
1553639327;144.531;4.883;23.926;147.949;139.648
1553639327;146.973;0;30.762;153.32;144.531
1553639327;143.555;-7.324;29.297;144.043;142.09
1553639327;152.344;-8.301;22.949;151.367;150.879
1553639327;156.25;-6.348;20.996;175.293;160.645
1553639327;164.062;-5.859;23.438;170.41;159.18
1553639327;168.457;-7.324;21.973;166.504;155.762
1553639327;166.992;-7.324;19.043;172.363;149.414
1553639327;171.387;-5.859;23.438;170.898;151.367
1553639327;177.246;-0.488;20.996;166.992;155.273
1553639327;176.758;2.93;18.066;162.598;152.832
1553639327;165.527;0.488;21.973;166.016;153.809
1553639327;147.461;-0.977;24.414;169.434;156.738
1553639327;144.531;-0.488;27.344;177.246;153.32
1553639327;154.297;-0.488;30.762;172.852;140.625
1553639327;155.762;0.977;31.25;155.273;131.348
1553639327;155.273;4.883;30.273;148.926;132.324
1553639327;140.137;4.883;31.25;142.578;135.742
1553639327;133.301;1.953;29.785;128.418;125
1553639327;148.438;3.418;26.367;129.395;117.188
1553639327;129.883;5.371;23.926;146.484;114.258
1553639327;103.027;3.906;20.508;138.672;111.816
1553639327;103.027;4.395;24.902;108.398;110.84
1553639327;106.934;4.883;23.926;97.656;104.98
1553639327;112.793;7.324;23.438;100.098;101.074
1553639327;109.375;11.23;29.785;103.027;101.074
1553639327;106.934;10.254;28.809;108.887;103.027
1553639327;109.375;13.672;27.832;110.84;97.168
1553639327;106.445;16.113;27.344;90.82;90.82
1553639327;96.191;16.113;24.902;79.59;92.285
1553639327;99.609;17.578;25.879;88.867;89.355
1553639327;98.145;15.625;28.32;101.562;86.914
1553639327;82.031;16.113;27.344;99.609;85.938
1553639327;81.055;21.484;25.391;76.66;84.961
1553639327;85.449;24.902;27.832;71.289;88.867
1553639327;82.031;23.438;30.762;73.242;84.473
1553639327;81.055;24.414;30.273;75.195;78.613
1553639327;76.172;23.926;28.32;72.754;80.078
1553639327;65.918;20.996;26.367;70.801;77.148
1553639327;59.57;23.438;26.367;77.637;69.824
1553639327;55.664;27.344;24.902;69.824;68.359
1553639327;63.477;29.785;23.926;69.336;66.406
1553639327;62.012;33.691;25.879;70.801;64.453
1553639327;49.805;33.203;25.391;59.57;63.477
1553639327;59.57;25.391;23.438;59.082;53.711
1553639327;68.359;23.926;22.461;59.57;49.805
1553639327;55.176;26.855;23.926;54.199;56.641
1553639327;43.457;23.926;27.832;61.523;55.664
1553639327;42.48;25.391;27.832;61.035;47.852
1553639327;42.48;28.32;26.367;48.828;49.316
1553639327;46.387;30.762;22.461;42.48;48.828
1553639327;32.227;30.762;21.973;41.504;44.922
1553639327;32.227;28.809;30.762;38.086;44.922
1553639327;45.898;28.809;32.715;41.992;45.41
1553639327;49.805;29.785;30.273;43.457;45.898
1553639327;39.062;32.227;31.25;40.527;43.457
1553639327;33.203;31.738;34.18;52.734;41.016
1553639327;37.109;29.297;32.715;58.594;42.48
1553639327;45.41;28.32;29.297;48.828;40.039
1553639327;49.316;30.762;31.25;53.711;41.504
1553639327;54.199;34.18;31.738;42.969;44.434
1553639327;49.316;32.715;29.785;34.668;40.039
1553639327;22.949;32.227;28.32;37.598;38.574
1553639327;19.531;33.203;25.879;26.367;41.016
1553639327;31.738;35.645;27.344;33.691;47.852
1553639327;37.109;40.527;31.25;48.34;49.316
1553639327;33.203;38.086;29.297;39.551;41.504
1553639327;32.227;34.18;26.855;29.785;36.621
1553639327;32.715;32.227;24.414;27.344;34.668
1553639327;36.133;33.691;26.855;25.879;30.273
1553639327;40.527;38.086;31.25;34.18;28.32
1553639327;40.039;37.598;29.297;36.133;24.414
1553639327;34.18;37.109;27.344;36.621;23.438
1553639327;15.625;39.551;28.32;29.785;26.855
1553639327;23.926;39.551;27.832;25.391;25.879
1553639327;38.086;34.18;31.738;43.457;24.902
1553639327;35.156;36.621;36.621;40.039;33.203
1553639327;40.039;40.039;32.715;22.949;39.062
1553639327;42.48;39.062;28.809;22.949;33.203
1553639327;39.551;38.574;29.785;26.367;34.668
1553639327;27.832;33.203;34.668;28.32;36.621
1553639327;18.555;29.785;38.574;30.273;35.645
1553639327;20.996;37.598;38.574;25.879;31.25
1553639327;24.414;40.527;37.109;21.973;30.762
1553639327;29.785;37.109;37.109;27.344;36.133
1553639327;45.898;35.645;37.109;32.227;42.48
1553639327;64.453;35.156;32.715;45.41;54.199
1553639327;71.777;36.621;29.297;54.688;59.082
1553639327;60.547;34.668;37.109;45.41;42.969
1553639327;39.062;33.203;42.48;47.363;31.25
1553639327;33.203;30.762;36.621;59.082;40.039
1553639327;44.922;24.414;37.598;59.57;48.34
1553639327;45.41;24.414;38.086;59.57;51.758
1553639327;49.805;22.949;35.645;58.594;54.688
1553639327;56.152;21.484;39.062;55.664;53.711
1553639327;46.387;23.926;34.18;46.387;51.758
1553639327;48.828;20.996;31.738;51.27;53.223
1553639327;53.711;20.508;35.156;53.711;50.781
1553639327;45.898;19.043;31.25;40.039;47.363
1553639327;45.898;20.02;29.785;43.945;42.969
1553639327;59.082;20.508;31.25;51.27;38.086
1553639327;62.988;18.555;33.691;46.875;39.551
1553639327;54.688;21.973;30.762;33.691;40.039
1553639327;38.574;23.438;27.832;23.926;36.621
1553639327;32.715;21.484;29.297;34.668;35.645
1553639327;37.598;20.996;28.809;47.363;38.574
1553639327;36.133;18.555;24.902;34.18;43.945
1553639327;42.969;20.02;18.555;20.02;43.457
1553639327;47.852;24.902;19.531;30.762;41.504
1553639327;50.781;29.297;29.297;34.668;38.574
1553639327;41.016;28.32;35.645;34.18;42.48
1553639327;30.273;24.902;34.668;38.086;48.34
1553639327;31.25;27.832;33.691;41.992;36.133
1553639327;31.738;31.738;33.691;40.039;25.879
1553639327;33.203;33.203;33.203;32.715;28.809
1553639327;36.133;35.156;30.762;27.832;26.855
1553639327;36.621;35.645;26.855;17.578;17.578
1553639327;31.25;35.645;25.879;15.625;17.578
1553639327;32.715;37.109;32.227;32.715;22.949
1553639327;35.156;40.527;32.227;50.293;23.926
1553639327;39.551;39.062;29.785;41.016;29.785
1553639327;43.945;34.668;31.25;23.438;34.18
1553639327;43.945;36.133;31.738;24.414;36.621
1553639327;35.156;36.133;32.715;34.18;38.574
1553639327;38.086;35.645;32.227;35.156;38.574
1553639327;45.898;34.18;30.762;29.785;37.598
1553639327;30.273;33.203;29.785;19.043;36.621
1553639327;24.414;31.25;31.25;31.25;35.156
1553639327;34.18;31.25;35.645;38.574;38.574
1553639327;23.438;36.621;37.109;26.367;37.598
1553639327;23.438;39.062;35.156;23.926;42.48
1553639327;33.691;37.598;35.645;24.414;48.34
1553639327;35.645;36.621;35.156;27.832;48.828
1553639327;38.574;42.48;35.156;30.273;49.805
1553639327;43.457;42.48;32.715;35.645;42.48
1553639327;54.199;41.016;31.25;44.434;39.062
1553639327;47.363;43.457;37.109;55.664;40.527
1553639327;28.809;38.574;39.551;52.246;41.992
1553639327;37.109;38.086;41.992;30.273;41.992
1553639327;44.922;39.551;39.551;26.855;43.945
1553639327;38.574;38.574;35.156;34.668;46.875
1553639327;33.203;44.434;36.621;33.203;40.527
1553639327;31.738;46.387;39.062;30.273;39.062
1553639327;41.016;43.457;37.598;47.363;42.48
1553639327;45.41;45.41;34.668;53.223;43.457
1553639327;41.992;45.898;35.156;37.598;47.852
1553639327;44.434;45.41;38.086;33.203;47.852
1553639327;45.898;44.434;40.039;35.645;43.945
1553639327;33.203;37.598;34.668;41.992;38.574
1553639327;30.273;34.18;30.762;43.945;36.133
1553639327;28.32;33.691;35.645;29.785;31.25
1553639327;37.109;32.715;36.621;28.809;29.785
1553639327;50.781;29.785;36.133;35.645;30.762
1553639327;37.109;23.926;31.738;37.109;32.227
1553639327;29.785;20.02;26.855;38.574;34.18
1553639327;30.762;22.461;28.809;29.297;26.855
1553639327;30.273;25.879;30.762;21.973;22.949
1553639327;32.227;24.902;32.715;30.762;30.762
1553639327;31.738;26.367;36.133;33.203;36.133
1553639327;25.391;27.344;33.203;26.367;28.809
1553639327;38.086;26.367;31.25;28.32;28.32
1553639327;60.547;26.855;32.715;32.715;24.414
1553639327;52.734;26.367;34.18;38.086;25.391
1553639327;34.18;31.25;34.668;42.969;29.297
1553639327;18.555;31.738;30.762;30.762;23.926
1553639327;22.949;22.461;31.738;20.996;29.297
1553639327;31.25;23.926;35.156;24.902;30.273
1553639327;38.086;28.32;33.691;29.297;24.414
1553639327;40.527;28.809;32.227;29.297;27.344
1553639327;35.645;31.738;33.203;28.32;28.32
1553639327;42.969;27.344;34.18;27.832;23.438
1553639327;47.852;27.832;37.109;29.297;24.414
1553639327;33.203;30.273;37.598;28.809;25.391
1553639327;26.855;28.809;36.133;36.133;29.785
1553639327;29.785;30.273;38.086;49.805;32.715
1553639327;23.926;30.762;35.156;40.527;32.227
1553639327;22.461;32.715;31.25;41.992;28.809
1553639327;30.762;30.762;29.297;37.598;26.367
1553639327;31.738;26.855;27.344;23.438;30.762
1553639327;26.367;30.273;28.32;20.508;31.25
1553639327;28.32;27.344;27.344;25.879;25.879
1553639327;30.273;23.926;26.855;27.832;23.438
1553639327;23.926;23.926;27.832;17.09;24.902
1553639327;19.043;20.508;32.715;15.625;28.32
1553639327;20.996;17.09;34.668;28.809;34.668
1553639327;43.945;16.113;35.156;43.457;40.039
1553639327;43.945;23.926;35.645;39.551;34.668
1553639327;14.648;32.227;33.691;28.809;21.484
1553639327;22.949;32.715;32.715;37.109;17.578
1553639327;43.945;34.18;28.809;48.828;26.855
1553639327;39.062;37.598;22.949;32.715;34.18
1553639327;34.668;40.039;22.461;28.32;36.621
1553639327;41.992;41.992;21.484;46.875;35.156
1553639328;29.297;40.527;20.996;44.922;30.273
1553639328;29.785;43.945;24.902;38.574;33.691
1553639328;41.992;46.875;25.391;35.156;35.645
1553639328;48.34;42.48;25.879;33.203;36.621
1553639328;50.781;44.434;26.855;38.574;38.574
1553639328;44.922;44.922;20.996;43.457;37.109
1553639328;50.293;38.574;19.531;50.293;38.574
1553639328;66.406;38.086;26.855;62.5;42.969
1553639328;60.547;41.992;30.273;60.059;40.039
1553639328;39.551;41.504;33.203;45.898;41.504
1553639328;24.414;36.621;37.598;50.781;46.387
1553639328;30.762;35.156;39.062;48.828;45.898
1553639328;47.852;32.715;36.621;40.039;44.434
1553639328;41.504;32.227;34.18;49.316;40.039
1553639328;32.715;35.645;33.203;43.945;36.133
1553639328;41.016;34.18;32.715;32.715;34.18
1553639328;47.852;31.738;33.203;34.18;35.645
1553639328;43.945;32.227;34.18;31.25;34.18
1553639328;37.109;31.25;32.715;36.133;30.762
1553639328;34.18;32.227;29.297;39.062;37.109
1553639328;44.434;32.227;27.832;36.621;41.504
1553639328;57.129;30.273;31.25;62.5;38.574
1553639328;51.27;30.273;33.203;83.008;33.691
1553639328;37.598;29.297;31.738;46.875;30.273
1553639328;30.273;32.227;32.227;16.113;35.645
1553639328;48.828;36.621;33.691;24.902;43.945
1553639328;46.387;36.621;34.18;26.855;48.34
1553639328;34.668;35.156;30.762;36.621;46.387
1553639328;41.016;36.133;28.809;37.109;48.34
1553639328;43.945;36.621;29.785;38.086;44.922
1553639328;49.316;38.574;28.32;53.711;40.039
1553639328;50.781;40.527;30.273;46.875;41.992
1553639328;49.805;38.086;31.738;41.016;39.551
1553639328;47.363;36.621;25.879;32.715;35.156
1553639328;40.527;36.133;24.902;21.484;34.18
1553639328;31.25;30.762;30.762;25.879;33.203
1553639328;26.367;31.738;34.668;35.645;33.691
1553639328;34.668;31.738;32.715;37.109;40.039
1553639328;36.621;29.297;33.691;29.297;38.574
1553639328;34.18;31.738;33.691;27.832;32.715
1553639328;48.34;34.668;27.832;28.809;30.762
1553639328;51.758;33.691;26.367;25.391;28.32
1553639328;33.203;26.367;29.297;34.18;30.762
1553639328;30.762;27.832;30.762;48.828;27.832
1553639328;21.973;33.691;29.297;51.758;27.344
1553639328;14.648;38.086;28.809;41.992;32.715
1553639328;18.066;40.527;29.785;32.227;34.668
1553639328;16.602;36.133;31.25;43.945;34.18
1553639328;30.762;35.645;32.715;60.547;37.109
1553639328;37.109;37.109;32.715;41.504;37.598
1553639328;37.598;37.109;29.297;22.949;36.621
1553639328;32.715;35.645;29.785;27.832;31.738
1553639328;25.879;33.203;30.273;32.227;29.785
1553639328;20.02;33.203;29.297;32.227;32.227
1553639328;26.855;32.227;32.227;44.922;34.18
1553639328;27.832;31.738;34.668;47.363;33.691
1553639328;41.992;31.25;33.203;42.48;28.809
1553639328;48.828;32.227;33.203;43.945;28.32
1553639328;28.32;33.691;33.691;37.109;29.297
1553639328;22.461;29.785;35.156;39.551;28.32
1553639328;41.992;32.227;33.203;41.504;23.926
1553639328;43.457;41.504;34.668;40.039;24.414
1553639328;25.879;38.086;36.133;37.109;20.02
1553639328;15.625;32.227;34.668;32.227;16.602
1553639328;10.254;34.18;38.574;28.809;20.996
1553639328;13.672;35.645;41.504;27.832;20.508
1553639328;12.207;37.109;40.039;36.133;20.508
1553639328;10.742;42.969;41.504;44.434;22.949
1553639328;4.883;42.48;47.363;17.578;7.812
1553639328;-15.137;44.434;50.781;-21.484;-23.438
1553639328;-39.062;52.246;50.293;-41.504;-40.527
1553639328;-51.27;51.758;40.527;-50.293;-42.969
1553639328;-46.875;55.664;43.945;-45.41;-49.805
1553639328;-60.547;62.988;56.641;-45.898;-67.383
1553639328;-98.633;62.988;61.035;-81.055;-89.844
1553639328;-104.004;68.359;62.988;-93.75;-98.633
1553639328;-98.145;71.289;61.523;-95.703;-104.98
1553639328;-102.051;71.777;55.664;-117.188;-108.398
1553639328;-106.934;74.219;55.664;-117.676;-106.934
1553639328;-121.582;75.684;58.594;-114.746;-122.559
1553639328;-129.395;73.242;58.105;-117.676;-131.836
1553639328;-122.07;71.289;60.547;-125.488;-124.023
1553639328;-115.234;70.801;60.059;-120.605;-118.652
1553639328;-113.281;72.266;53.711;-104.004;-111.816
1553639328;-99.609;69.824;53.711;-93.262;-94.238
1553639328;-95.215;64.941;56.641;-90.82;-85.449
1553639328;-85.938;58.594;52.734;-91.797;-83.984
1553639328;-73.242;55.664;44.922;-79.102;-67.383
1553639328;-62.012;58.594;40.039;-50.293;-41.016
1553639328;-54.688;58.105;44.434;-35.645;-27.832
1553639328;-36.621;47.852;46.387;-26.367;-29.785
1553639328;-17.578;39.062;42.969;0.488;-19.531
1553639328;-8.301;37.109;42.48;13.184;-0.488
1553639328;13.184;34.668;40.527;18.555;7.324
1553639328;20.02;28.32;38.086;34.668;9.277
1553639328;12.207;22.949;33.691;51.27;23.438
1553639328;33.203;22.461;32.715;61.035;41.016
1553639328;55.176;20.996;33.203;59.082;51.27
1553639328;63.477;16.113;31.25;57.129;52.246
1553639328;62.012;18.555;27.832;64.453;62.988
1553639328;78.613;19.043;26.367;77.148;73.242
1553639328;83.008;17.09;30.273;86.914;72.266
1553639328;74.707;17.09;27.344;81.543;75.195
1553639328;76.66;15.137;24.902;77.148;78.125
1553639328;80.078;18.066;26.855;84.473;85.449
1553639328;86.914;21.973;22.461;95.215;93.75
1553639328;95.703;23.438;21.484;97.656;91.797
1553639328;90.332;22.461;26.367;89.844;86.914
1553639328;87.402;20.996;28.32;96.68;84.961
1553639328;83.984;20.996;27.344;99.121;84.473
1553639328;89.355;23.438;28.809;89.844;87.402
1553639328;84.961;21.973;30.762;95.215;82.031
1553639328;81.055;18.066;30.762;101.562;72.266
1553639328;91.309;21.484;28.809;91.309;78.125
1553639328;77.637;21.973;24.902;83.008;80.566
1553639328;63.477;20.996;25.879;92.285;79.102
1553639328;67.871;22.949;25.391;86.914;74.707
1553639328;73.73;24.902;22.949;79.102;72.754
1553639328;72.754;27.832;20.02;78.125;76.66
1553639328;74.219;24.902;19.531;74.219;80.566
1553639328;77.637;21.973;23.926;71.289;76.172
1553639328;62.5;24.414;26.855;72.266;72.266
1553639328;62.012;25.391;26.367;76.66;72.754
1553639328;77.637;23.926;23.438;70.312;73.242
1553639328;76.66;25.391;19.531;69.336;68.848
1553639328;76.66;26.367;20.508;64.941;64.453
1553639328;68.848;28.32;20.508;70.801;65.43
1553639328;64.941;27.344;24.414;83.984;68.359
1553639328;63.477;24.414;29.785;70.801;68.359
1553639328;53.223;24.414;27.344;61.035;70.312
1553639328;59.57;24.902;25.879;63.965;71.777
1553639328;63.477;26.367;28.809;67.871;68.848
1553639328;64.941;30.762;28.809;59.57;64.453
1553639328;69.824;31.25;27.344;57.617;57.129
1553639328;71.777;31.25;25.391;50.293;51.758
1553639328;70.312;27.344;24.902;47.852;56.641
1553639328;50.781;24.414;24.414;53.223;58.105
1553639328;38.086;24.414;22.461;52.734;46.387
1553639328;51.27;23.438;22.949;54.688;43.945
1553639328;62.012;23.926;23.926;60.059;51.27
1553639328;62.5;23.926;22.949;64.941;45.41
1553639328;51.758;25.879;24.902;57.617;39.551
1553639328;56.641;27.832;27.832;44.922;38.086
1553639328;60.059;24.414;24.414;47.852;33.203
1553639328;32.715;21.973;23.438;56.641;33.691
1553639328;28.32;20.996;26.367;57.129;29.297
1553639328;52.246;18.555;29.297;37.598;25.391
1553639328;59.082;18.066;23.438;21.973;27.344
1553639328;52.734;17.09;20.02;31.25;24.414
1553639328;47.363;18.555;19.531;32.715;22.949
1553639328;35.156;25.391;19.531;28.32;22.949
1553639328;35.156;24.902;24.902;33.691;18.066
1553639328;37.598;23.926;23.926;30.762;19.043
1553639328;29.785;24.902;23.926;27.344;21.973
1553639328;37.109;25.391;26.855;36.133;20.02
1553639328;40.527;25.391;27.832;42.48;19.531
1553639328;36.621;23.926;30.273;45.41;22.461
1553639328;41.504;25.391;26.367;41.992;26.855
1553639328;32.227;22.949;29.785;23.438;23.438
1553639328;41.992;24.902;33.691;13.672;13.184
1553639328;43.945;29.297;27.344;28.32;11.719
1553639328;16.602;25.879;33.203;32.227;11.719
1553639328;1.953;21.973;34.18;7.324;2.441
1553639328;-2.441;29.297;36.621;-8.301;-2.441
1553639328;-11.719;34.18;45.41;-7.324;-10.254
1553639328;-19.531;34.18;50.293;-4.883;-20.508
1553639328;-22.461;36.133;46.875;-13.672;-25.879
1553639328;-23.926;32.227;47.852;-19.531;-36.621
1553639328;-24.414;41.504;57.617;-39.062;-50.781
1553639328;-43.457;54.199;61.035;-65.918;-67.871
1553639328;-60.547;59.082;60.059;-80.566;-83.008
1553639328;-78.613;61.035;62.988;-90.82;-97.656
1553639328;-112.793;59.082;64.941;-111.816;-113.281
1553639328;-122.559;63.965;64.453;-132.812;-122.559
1553639328;-124.512;68.359;62.012;-132.812;-113.281
1553639328;-130.371;66.406;61.523;-130.371;-109.863
1553639328;-137.695;72.266;63.965;-137.207;-127.93
1553639328;-140.137;79.102;57.129;-145.508;-129.395
1553639328;-121.582;77.148;46.875;-138.672;-111.328
1553639328;-111.328;74.219;46.875;-128.418;-107.422
1553639328;-122.559;75.195;48.828;-124.023;-114.258
1553639328;-121.094;77.637;42.969;-121.094;-107.422
1553639328;-104.98;76.172;40.527;-104.98;-93.75
1553639328;-96.68;71.289;42.969;-91.309;-81.543
1553639328;-85.449;66.895;41.016;-90.332;-73.73
1553639328;-63.477;61.035;37.598;-74.707;-62.012
1553639328;-56.152;51.758;34.18;-56.641;-42.48
1553639328;-34.18;42.48;37.598;-47.852;-32.227
1553639328;-12.695;39.551;36.621;-41.504;-24.902
1553639328;-18.066;34.668;35.645;-19.043;-8.789
1553639328;3.906;24.414;36.133;15.137;6.348
1553639328;21.973;23.926;32.227;27.832;19.531
1553639328;34.668;24.414;27.344;27.832;35.156
1553639328;40.039;18.066;25.391;38.086;46.875
1553639328;56.641;17.578;27.832;43.457;53.223
1553639328;63.477;20.02;21.973;61.035;63.477
1553639328;53.711;17.578;12.207;71.777;74.707
1553639328;68.359;13.184;13.184;75.195;84.473
1553639328;88.867;9.766;18.555;83.984;87.402
1553639328;84.961;8.789;16.113;91.309;89.844
1553639328;84.961;7.324;17.09;103.027;100.098
1553639328;93.75;9.277;15.625;111.816;104.492
1553639328;105.469;10.742;12.207;101.562;106.934
1553639328;110.352;10.254;13.672;91.797;105.957
1553639328;99.121;14.648;12.207;90.332;104.004
1553639328;99.609;13.672;11.23;86.426;103.516
1553639328;104.492;11.23;16.113;96.191;103.027
1553639328;95.703;14.648;20.02;95.703;102.539
1553639328;83.496;14.16;19.531;90.82;99.121
1553639328;93.75;16.602;18.555;92.773;97.168
1553639328;103.516;19.043;16.113;81.543;98.633
1553639328;87.891;17.578;14.16;79.102;100.098
1553639328;77.148;16.602;17.578;87.891;94.727
1553639328;79.102;18.555;18.555;91.797;88.379
1553639328;77.148;20.508;15.137;97.656;90.82
1553639328;76.66;19.531;16.113;96.68;92.285
1553639328;74.219;18.555;21.973;96.191;89.844
1553639328;70.801;22.949;19.531;91.309;90.332
1553639328;85.449;24.414;18.066;83.984;90.82
1553639328;85.938;22.949;21.484;70.312;84.961
1553639328;65.918;25.879;27.344;60.059;82.52
1553639328;56.152;29.297;27.832;71.289;87.891
1553639328;74.219;28.32;25.391;75.195;83.984
1553639328;83.496;29.297;21.973;79.59;79.102
1553639328;69.336;29.297;21.973;84.961;80.078
1553639328;72.266;29.297;23.438;81.543;78.613
1553639328;74.219;29.785;20.996;77.637;73.73
1553639328;66.895;33.203;22.949;69.824;74.219
1553639328;65.43;34.668;23.438;63.965;72.266
1553639328;55.176;31.738;20.996;62.988;67.383
1553639328;55.664;32.227;20.02;57.129;67.383
1553639328;62.988;32.715;21.973;65.918;62.988
1553639328;54.688;31.25;20.508;68.359;60.547
1553639328;57.129;30.762;20.996;58.594;65.918
1553639328;51.758;31.25;23.926;54.199;64.941
1553639328;53.223;33.691;24.414;45.898;56.152
1553639328;57.129;35.156;25.879;44.922;55.664
1553639328;64.941;38.574;26.855;43.457;59.082
1553639328;58.105;42.969;25.391;50.781;65.43
1553639328;40.527;41.016;25.391;62.988;64.941
1553639328;48.828;38.086;26.855;52.734;59.57
1553639328;57.129;38.086;26.855;47.852;56.641
1553639328;58.594;32.227;27.832;52.734;55.176
1553639328;59.082;31.25;27.344;48.34;55.176
1553639328;57.129;34.668;28.32;43.457;47.363
1553639328;50.781;35.645;29.785;53.711;45.898
1553639328;47.363;36.133;32.715;57.617;53.223
1553639328;39.551;36.621;34.668;45.898;54.199
1553639328;37.109;39.551;35.156;47.363;51.27
1553639328;44.922;40.039;39.551;60.059;50.781
1553639328;44.434;37.109;38.574;50.293;51.27
1553639328;45.41;36.621;36.621;41.016;53.711
1553639328;52.246;38.086;35.645;51.758;52.734
1553639328;51.27;34.668;34.668;57.617;52.246
1553639328;42.48;34.668;34.668;49.805;54.688
1553639328;42.48;37.598;33.203;43.945;49.805
1553639329;49.805;36.621;34.668;34.668;49.805
1553639329;55.176;38.086;36.133;36.621;50.781
1553639329;41.016;38.086;39.551;52.246;41.992
1553639329;34.668;34.668;37.109;57.129;40.039
1553639329;44.434;33.203;32.227;45.898;44.434
1553639329;54.688;32.227;32.227;40.039;43.945
1553639329;56.641;32.715;32.227;49.316;45.898
1553639329;54.199;35.645;33.691;61.035;50.781
1553639329;57.617;36.133;36.133;57.617;54.199
1553639329;54.688;34.668;38.086;47.852;53.223
1553639329;53.223;33.203;35.156;40.039;50.781
1553639329;37.598;32.715;35.645;37.109;47.852
1553639329;25.879;28.809;38.574;34.18;39.062
1553639329;36.621;27.832;35.156;36.133;33.203
1553639329;40.039;30.273;34.18;40.039;31.738
1553639329;31.738;28.32;33.691;41.992;28.809
1553639329;27.344;32.715;31.738;40.039;29.785
1553639329;31.25;36.621;31.738;31.738;26.367
1553639329;36.133;32.715;33.203;37.109;23.438
1553639329;32.715;29.297;32.715;33.691;23.438
1553639329;30.762;27.832;26.855;31.25;25.391
1553639329;42.48;28.809;22.949;39.551;26.855
1553639329;38.574;31.25;24.414;35.645;23.438
1553639329;25.391;35.156;30.273;31.25;29.297
1553639329;35.645;34.668;32.715;31.738;31.25
1553639329;41.992;33.691;29.785;33.691;24.902
1553639329;38.086;36.621;28.809;34.668;23.926
1553639329;44.434;38.086;29.785;38.086;30.273
1553639329;50.781;39.551;29.297;39.062;34.18
1553639329;42.969;40.527;30.273;38.086;35.645
1553639329;35.156;39.062;30.762;42.969;36.133
1553639329;42.48;37.109;31.738;36.621;32.715
1553639329;36.133;38.574;31.738;37.109;33.691
1553639329;22.461;43.945;34.668;39.062;38.086
1553639329;30.762;42.969;31.738;26.367;39.062
1553639329;39.062;43.945;30.762;26.367;41.016
1553639329;41.504;46.387;38.574;45.41;40.527
1553639329;40.039;45.41;37.598;45.898;41.016
1553639329;45.41;45.898;33.203;38.574;39.551
1553639329;44.434;44.434;37.598;34.668;33.691
1553639329;39.551;40.527;36.133;26.855;30.762
1553639329;32.227;44.922;31.738;26.367;36.621
1553639329;27.344;46.875;33.203;23.438;39.551
1553639329;31.25;41.016;31.738;31.25;33.203
1553639329;31.738;39.551;26.367;37.109;27.832
1553639329;39.062;35.645;25.391;33.691;28.32
1553639329;41.992;34.18;31.738;33.691;34.18
1553639329;24.902;35.645;32.227;41.992;33.691
1553639329;27.832;36.133;31.25;51.758;28.809
1553639329;37.109;37.598;32.227;42.969;30.273
1553639329;31.25;35.156;31.25;25.879;33.203
1553639329;33.691;28.809;31.738;27.344;28.809
1553639329;26.855;29.297;34.668;31.738;27.832
1553639329;27.832;30.762;33.203;41.992;34.18
1553639329;37.109;28.809;34.668;50.293;35.645
1553639329;36.133;29.297;35.156;39.551;31.738
1553639329;30.273;29.785;31.25;36.133;27.832
1553639329;24.902;28.809;32.227;41.016;27.344
1553639329;17.578;24.414;30.762;32.715;26.855
1553639329;14.648;22.461;27.344;17.09;26.367
1553639329;41.016;21.973;30.273;14.648;26.855
1553639329;44.434;17.09;30.762;28.809;24.902
1553639329;21.973;14.16;31.738;48.828;28.809
1553639329;32.715;13.672;33.691;48.828;31.738
1553639329;33.203;14.648;32.227;30.762;24.414
1553639329;16.602;18.555;29.297;28.809;23.438
1553639329;18.555;20.508;32.227;39.062;25.879
1553639329;33.691;21.973;36.621;40.039;28.32
1553639329;34.668;23.926;36.133;35.156;29.297
1553639329;32.715;23.926;36.133;48.828;28.32
1553639329;31.25;27.344;37.598;52.246;32.715
1553639329;26.367;26.367;34.18;39.062;35.645
1553639329;22.461;24.902;29.297;30.273;32.227
1553639329;21.484;20.996;30.273;27.832;26.855
1553639329;37.598;18.066;32.715;32.227;30.762
1553639329;35.645;22.461;36.621;41.016;37.598
1553639329;31.738;22.461;37.598;41.992;40.039
1553639329;29.785;18.555;34.18;42.48;35.645
1553639329;17.09;20.02;30.273;36.621;28.32
1553639329;17.578;22.949;34.668;24.414;28.809
1553639329;23.926;20.02;36.621;30.762;27.344
1553639329;25.879;17.09;36.133;46.875;18.555
1553639329;22.461;18.555;37.109;45.898;15.625
1553639329;31.25;22.949;37.598;34.18;24.902
1553639329;33.691;30.762;38.086;33.203;32.227
1553639329;19.043;25.879;34.18;32.227;27.832
1553639329;11.23;21.484;37.598;25.391;24.414
1553639329;9.766;26.855;41.504;17.09;17.09
1553639329;-1.953;26.855;39.062;0.488;9.277
1553639329;-7.812;27.832;40.527;11.719;9.277
1553639329;4.395;29.297;46.875;23.438;1.465
1553639329;0.488;28.809;55.176;-6.836;-7.324
1553639329;-6.348;30.273;53.223;-27.344;1.953
1553639329;-32.715;31.738;59.082;-48.34;-14.16
1553639329;-49.805;35.645;62.988;-66.406;-41.016
1553639329;-63.477;43.945;62.5;-75.195;-56.641
1553639329;-83.496;50.781;70.801;-96.191;-73.242
1553639329;-96.68;54.688;79.59;-108.887;-86.426
1553639329;-125.488;57.617;83.984;-126.465;-109.375
1553639329;-137.207;69.824;85.449;-137.695;-129.883
1553639329;-142.578;76.66;81.543;-142.09;-139.16
1553639329;-139.648;75.195;82.031;-154.297;-140.137
1553639329;-146.973;74.707;82.031;-158.203;-141.602
1553639329;-166.016;81.543;84.473;-161.133;-145.02
1553639329;-173.34;82.52;81.543;-165.527;-150.879
1553639329;-160.645;76.66;73.73;-159.18;-147.949
1553639329;-139.16;75.684;69.824;-147.949;-135.742
1553639329;-134.766;78.125;69.824;-145.996;-133.789
1553639329;-120.605;77.148;73.242;-130.371;-125
1553639329;-98.633;69.336;74.219;-107.91;-104.004
1553639329;-96.191;64.453;64.453;-108.398;-92.773
1553639329;-85.938;64.453;51.758;-101.074;-84.961
1553639329;-74.219;62.988;43.945;-72.754;-62.5
1553639329;-61.523;57.129;41.992;-53.223;-45.41
1553639329;-44.922;48.34;44.434;-51.27;-34.668
1553639329;-39.551;46.387;42.48;-33.203;-24.414
1553639329;-15.625;48.34;36.133;-9.277;-7.812
1553639329;19.531;41.992;34.18;8.789;19.531
1553639329;27.344;35.156;31.25;26.855;33.203
1553639329;43.457;27.832;24.414;44.434;41.504
1553639329;53.223;20.508;20.02;62.988;51.758
1553639329;53.223;20.02;18.066;81.543;56.641
1553639329;63.965;20.996;13.672;72.754;62.988
1553639329;65.918;20.02;9.277;59.082;68.359
1553639329;76.66;20.02;9.277;79.102;75.684
1553639329;97.168;18.066;9.766;91.797;89.844
1553639329;91.797;16.602;11.23;85.449;93.75
1553639329;96.68;15.137;10.254;91.309;98.633
1553639329;96.68;14.16;7.324;91.797;103.516
1553639329;93.75;16.602;4.395;96.68;96.191
1553639329;100.098;16.602;2.93;111.328;97.656
1553639329;89.355;13.672;8.789;116.699;102.539
1553639329;95.215;14.648;11.23;120.117;104.492
1553639329;97.656;15.625;7.324;119.629;108.887
1553639329;89.355;13.184;5.371;115.234;107.422
1553639329;98.633;12.695;8.789;113.281;105.469
1553639329;107.91;13.672;11.23;102.051;105.469
1553639329;113.77;17.09;13.184;88.867;99.609
1553639329;102.051;20.996;14.648;96.191;102.539
1553639329;95.703;20.02;18.555;110.84;110.352
1553639329;97.656;17.09;17.578;100.586;105.469
1553639329;99.609;16.602;10.742;92.285;97.168
1553639329;101.074;17.09;12.695;102.051;95.703
1553639329;94.727;20.02;16.113;109.863;96.68
1553639329;98.145;19.531;13.672;95.215;96.191
1553639329;99.609;18.066;11.719;96.191;87.402
1553639329;89.355;19.043;12.207;97.656;77.637
1553639329;77.637;19.043;13.184;75.195;77.637
1553639329;78.613;20.508;11.719;68.848;86.426
1553639329;79.59;23.926;13.184;71.777;86.426
1553639329;83.984;27.344;15.137;76.172;84.473
1553639329;84.473;25.391;17.09;77.637;81.543
1553639329;71.289;20.996;20.02;79.59;76.66
1553639329;89.844;23.438;20.02;86.914;76.172
1553639329;89.355;26.855;20.996;79.102;75.684
1553639329;66.895;28.809;25.391;71.777;77.637
1553639329;75.684;28.809;27.344;84.961;80.566
1553639329;77.148;30.273;25.391;85.449;83.008
1553639329;62.988;30.273;26.855;76.172;76.66
1553639329;60.059;30.273;25.391;86.914;71.289
1553639329;71.777;31.738;20.508;96.191;73.73
1553639329;84.961;32.227;19.531;74.219;76.172
1553639329;83.496;31.25;21.973;62.5;76.66
1553639329;70.312;31.25;23.926;76.172;76.172
1553639329;58.594;31.738;22.949;79.59;72.266
1553639329;60.059;31.738;21.973;78.613;66.406
1553639329;68.359;33.203;20.508;66.895;67.383
1553639329;69.336;32.715;23.438;52.734;63.477
1553639329;59.57;32.715;28.809;52.734;60.547
1553639329;52.734;36.133;29.785;65.43;66.895
1553639329;50.293;34.18;30.273;63.477;62.988
1553639329;59.57;28.809;31.738;53.223;54.688
1553639329;64.453;22.949;29.297;72.754;52.246
1553639329;49.805;20.02;27.832;84.473;47.363
1553639329;47.363;20.02;25.879;64.453;42.969
1553639329;44.434;24.414;20.508;55.664;40.527
1553639329;48.828;32.227;23.926;53.711;47.363
1553639329;56.152;32.227;28.32;52.246;53.223
1553639329;52.734;32.227;29.297;66.406;58.594
1553639329;56.152;37.109;30.273;57.129;62.5
1553639329;61.523;34.668;29.297;43.457;56.641
1553639329;51.758;32.715;30.273;48.34;51.758
1553639329;40.039;34.18;30.762;58.594;51.758
1553639329;44.922;38.086;30.762;52.734;51.27
1553639329;57.129;42.969;30.273;41.504;55.176
1553639329;72.266;46.875;25.879;65.918;71.777
1553639329;72.754;42.969;28.809;67.383;59.57
1553639329;43.945;35.645;34.18;30.273;22.949
1553639329;19.043;33.691;34.18;25.879;8.301
1553639329;14.648;31.25;28.809;23.438;5.371
1553639329;20.508;30.273;22.461;10.254;2.93
1553639329;12.207;33.203;23.438;8.789;0.488
1553639329;-8.301;29.297;23.438;11.23;-7.812
1553639329;-13.672;26.367;23.926;9.766;-5.371
1553639329;-19.531;24.414;19.531;-0.488;-6.348
1553639329;-13.672;21.973;18.555;-7.812;-8.301
1553639329;6.348;28.32;24.414;-16.602;-0.977
1553639329;13.672;30.762;29.785;-20.02;3.906
1553639329;15.137;31.25;34.668;-8.301;14.16
1553639329;9.277;35.156;33.691;6.836;18.555
1553639329;19.043;34.668;28.809;13.672;14.648
1553639329;25.391;34.668;28.32;4.395;12.695
1553639329;7.812;34.18;30.273;1.465;11.23
1553639329;7.324;30.273;28.809;18.066;11.719
1553639329;14.16;31.25;28.809;16.602;13.184
1553639329;5.371;34.668;26.855;8.301;12.695
1553639329;13.672;37.109;22.461;11.719;13.672
1553639329;17.578;37.109;22.949;23.438;13.672
1553639329;19.531;36.133;24.902;27.344;20.02
1553639329;22.949;33.691;24.902;16.602;24.414
1553639329;22.949;33.203;26.367;17.09;29.785
1553639329;23.438;37.598;30.762;23.926;37.109
1553639329;30.273;41.992;33.203;31.25;38.574
1553639329;35.156;40.527;29.785;30.273;35.156
1553639329;26.367;39.062;32.715;27.832;33.203
1553639329;20.508;37.598;34.18;22.461;35.156
1553639329;17.578;35.156;30.762;17.09;41.016
1553639329;19.043;36.133;30.762;21.484;44.434
1553639329;23.926;39.062;28.32;20.02;37.598
1553639329;27.344;40.039;23.926;22.949;37.598
1553639329;28.809;38.574;28.32;34.668;41.504
1553639329;34.668;40.527;32.715;39.551;47.852
1553639329;23.926;37.598;31.25;29.297;42.48
1553639329;28.809;32.715;32.715;42.48;34.18
1553639329;42.969;36.621;30.762;47.363;37.598
1553639329;30.273;41.992;22.461;24.902;40.039
1553639329;21.484;42.48;22.461;24.902;42.48
1553639329;31.25;41.504;24.902;38.086;41.992
1553639329;33.691;42.48;25.391;40.039;39.062
1553639329;31.738;37.109;29.297;47.852;43.945
1553639329;35.156;32.715;29.297;38.574;44.922
1553639329;27.344;34.668;26.855;34.668;39.551
1553639329;28.32;31.738;23.926;43.945;39.062
1553639329;36.133;29.297;26.855;49.316;42.969
1553639329;21.484;29.297;30.273;43.457;44.434
1553639329;21.484;27.344;27.344;36.133;39.551
1553639329;31.25;30.762;26.855;35.156;38.574
1553639329;22.461;29.297;26.855;34.668;39.062
1553639329;11.23;23.438;23.926;35.156;42.969
1553639329;14.648;24.414;23.926;31.25;41.016
1553639329;13.184;26.855;27.832;35.156;36.621
1553639329;16.602;26.367;26.367;48.828;36.621
1553639329;23.438;27.832;25.879;53.711;32.227
1553639329;19.043;27.832;26.367;43.457;36.133
1553639329;14.16;22.461;26.367;47.852;38.574
1553639329;27.832;24.414;30.273;53.223;36.133
1553639329;52.734;29.297;31.738;43.457;38.574
1553639329;42.969;29.297;32.227;47.363;36.133
1553639329;22.949;24.902;33.691;55.176;28.809
1553639329;13.672;24.414;32.715;56.641;26.855
1553639329;4.395;29.785;31.738;46.875;29.785
1553639329;18.066;28.32;31.25;30.273;32.227
1553639329;32.227;27.344;33.203;34.668;31.738
1553639329;20.508;26.855;31.738;36.621;30.762
1553639329;21.484;26.855;30.762;38.086;36.133
1553639329;26.855;31.738;32.227;38.574;38.086
1553639330;15.625;31.25;34.18;36.133;28.809
1553639330;20.02;28.809;33.691;42.48;29.785
1553639330;25.391;31.738;35.156;59.57;35.156
1553639330;32.227;30.762;31.25;56.152;34.18
1553639330;31.738;28.809;26.367;54.199;44.922
1553639330;40.527;30.273;35.645;68.848;66.895
1553639330;41.504;30.762;38.086;58.105;63.965
1553639330;27.344;33.691;32.715;36.621;38.086
1553639330;35.645;33.691;31.25;38.086;36.133
1553639330;56.641;34.18;35.645;66.406;49.316
1553639330;61.035;36.133;37.109;80.566;51.27
1553639330;72.754;37.598;34.18;103.027;58.105
1553639330;99.609;34.668;31.25;99.121;65.43
1553639330;93.75;31.738;24.414;63.965;60.547
1553639330;76.66;35.645;22.949;65.43;51.758
1553639330;75.195;33.691;28.809;74.707;54.199
1553639330;81.055;28.809;34.18;85.938;65.918
1553639330;89.355;29.297;35.156;77.637;54.199
1553639330;86.914;31.25;34.18;58.594;41.016
1553639330;71.777;33.691;37.598;54.199;46.387
1553639330;75.684;32.715;41.504;56.152;53.223
1553639330;66.895;28.32;40.527;53.223;47.363
